# Format: McCode with text headers
# URL: http://www.mccode.org
# Creator: McStas 2.5 - Dec. 12, 2018
# Instrument: BIFROST_losses.instr
# Ncount: 174450495
# Trace: no
# Gravitation: no
# Seed: 1560250153
# Directory: BIFROST_losses_20190611_114821
# Nodes: 8
# Param: MCPL=1
# Param: CHOPPERS=0
# Param: sector=W
# Param: beamline=3
# Param: Lmin=0.2
# Param: Lmax=20
# Param: c_performance=1
# Param: t_performance=1
# Param: index=8
# Param: dist=0
# Param: cold=1
# Param: Yheight=0.03
# Param: delta=0
# Param: thres=0.003
# Param: filter=0
# Param: repeat=1
# Param: E_smear=0.1
# Param: pos_smear=0.01
# Param: dir_smear=0.01
# Param: WaveMin=0.1
# Param: WaveMax=99.5
# Param: pin_holeY=0.088
# Param: pin_holeX=0.03
# Param: E_0=4
# Param: L_0=0
# Param: chopPulseOpening=0.004
# Param: chopPulseFrequencyOrder=8
# Param: sampleSizeX=0.01
# Param: sampleSizeY=0.01
# Param: chopBWPos=78
# Param: DivSlit0_width=0.1
# Param: DivSlit1_width=0.1
# Param: DivSlit2_width=0.1
# Param: DivSlit3_width=0.1
# Param: BWopen=172.33
# Param: FOCopen1=37.79
# Param: FOCopen2=51.63
# Param: Npulse=1
# Param: PscOff=0.0306
# Param: discD=0.04
# Param: monigap_length=0.02
# Param: print=0
# Param: makeVirtualSource=0
# Param: printMValues=0
# Param: ROT=0
# Param: TX=0
# Param: TY=0
# Param: TZ=0
# Param: Center=0
# Date: Tue Jun 11 11:57:27 2019 (1560247047)
# type: array_1d(1000)
# Source: BIFROST_MCPL (BIFROST_losses.instr)
# component: ToFAfterFOC2
# position: 11.1247 0 10.1766
# title: Time-of-flight monitor
# Ncount: 1395603960
# filename: ToFAfterFOC2.dat
# statistics: X0=12385.2; dX=3939.77;
# signal: Min=10653.4; Max=6.50178e+08; Mean=2.49734e+08;
# values: 2.49734e+11 1.19204e+09 4.08444e+06
# xvar: t
# yvar: (I,I_err)
# xlabel: Time-of-flight [\gms]
# ylabel: Intensity
# xlimits: 0 20000
# variables: t I I_err N
10 8057153.045 8035110.264 2 
30 935991.6289 1039312.022 4 
50 1315166.686 1518623.681 3 
70 10413746.72 9368505.518 10 
90 1023025.824 614871.0199 6 
110 4274057.749 3908290.232 9 
130 353882.3885 342643.2726 8 
150 8066333.791 5974623.364 6 
170 648358.9016 538012.8978 9 
190 6114439.944 5062782.69 4 
210 2951021.214 2776418.96 7 
230 251471.0295 197559.6804 10 
250 9355233.387 6334519.066 8 
270 17453352.81 15173014.17 8 
290 10203213.91 7747985.299 15 
310 14493878.13 15219990.9 9 
330 48391938.63 51101181.4 8 
350 3066813.589 2495796.676 7 
370 412039.4804 349656.5096 10 
390 2711474.105 1982500.393 9 
410 11367346.96 9400608.895 10 
430 64914395.02 51092011.1 11 
450 9550256.426 5713919.069 12 
470 4812163.822 3069599.566 11 
490 4259586.976 2603148.972 12 
510 11223737.99 10156576.38 12 
530 1646210.516 1221995.61 10 
550 5967391.577 5826798.925 11 
570 4870113.096 3032662.825 12 
590 452332.5537 476486.5155 7 
610 1720041.641 1195331.278 8 
630 12729460.55 10671542.44 8 
650 6106246.671 4516848.483 10 
670 183429.2364 204999.4391 4 
690 22627195.5 15559880.5 16 
710 2962100.235 1961664.541 21 
730 14476719.16 10963418.72 10 
750 90355.22292 53892.2587 12 
770 3791693.357 3543795.724 16 
790 26201537.58 16813078.55 15 
810 8276229.903 5903033.263 9 
830 8802197.451 6033311.344 18 
850 1587910.463 856198.4142 18 
870 7577527.656 6415557.616 16 
890 2551007.728 2095077.147 11 
910 10653.43218 9244.546064 9 
930 17895824.05 14629484.06 23 
950 5940201.257 4052836.767 20 
970 1311209.438 1160896.293 14 
990 1852381.394 1749968.477 13 
1010 10630917.12 7878000.012 18 
1030 5706249.235 3465397.878 13 
1050 28032708.69 16651694.23 26 
1070 17752379.26 10432361.35 19 
1090 92106809.43 59487495.34 22 
1110 5715195.185 4987010.297 25 
1130 1025728.797 644874.0385 20 
1150 7625963.79 3886444.28 27 
1170 15540541.34 14689504.95 15 
1190 900124.5472 920661.5718 10 
1210 1727424.515 1697303.39 20 
1230 80528.15071 63891.14058 18 
1250 10300167.05 6318061.652 20 
1270 54674609.37 36415575.9 17 
1290 8830779.367 8426545.176 24 
1310 14714714.14 9241027.781 28 
1330 28437642.08 17335852.81 22 
1350 6908655.001 4640202.89 27 
1370 697412.3635 358866.6033 29 
1390 4951218.25 2784484.641 24 
1410 1978849.624 1407899.554 23 
1430 9970655.692 5661949.162 27 
1450 14499248.94 9765921.584 30 
1470 6587822.436 4852008.981 26 
1490 22472149.75 12520758.55 40 
1510 15158682.35 8668830.063 19 
1530 2184426.331 1946690.499 31 
1550 36054432.38 32756353.62 30 
1570 13681127.11 7635963.836 36 
1590 7551655.404 5541475.029 39 
1610 28690859.34 15232805.88 31 
1630 14185996.45 7676382.799 43 
1650 1224421.633 867685.4647 35 
1670 9456669.367 5453906.275 41 
1690 13849902.84 12923189.22 44 
1710 26307424.09 16862991.13 56 
1730 28594738.05 16865651.09 45 
1750 17648980.93 9070698.488 55 
1770 9865836.585 3830337.084 51 
1790 72901153.46 44583947.16 52 
1810 60586611.78 49544637.88 57 
1830 16563800.66 10124028.24 45 
1850 10537267.55 7286930.145 47 
1870 17659801.11 12244967.8 61 
1890 3475336.094 2064704.318 59 
1910 1118824.701 637579.1442 44 
1930 35508833.46 25782060.37 51 
1950 19346422.45 11191673.12 62 
1970 9820235.565 4647412.313 71 
1990 25131994.88 15294809.01 68 
2010 2735061.349 1046737.382 74 
2030 46151546.24 18886512.28 54 
2050 16600830.4 8110058.977 64 
2070 16467392.4 8540987.733 72 
2090 70682887.76 50839814.31 71 
2110 17587068.89 8190127.076 89 
2130 8347361.022 3580320.454 67 
2150 5915595.3 2322508.077 93 
2170 22779330.17 15992172.22 93 
2190 35264371.71 15319279.68 92 
2210 25502883.7 9230881.833 92 
2230 23011671.81 12654657.27 77 
2250 7563453.027 3825812.402 88 
2270 11688987.23 5284738.136 105 
2290 25641788.21 11898176.65 103 
2310 11145591.97 5597419.927 92 
2330 14794037.59 10106239.37 94 
2350 39170054.99 22419339.12 108 
2370 166741658.8 115064443.6 112 
2390 22948968.86 15532192.06 103 
2410 21854026.67 8331355.126 136 
2430 5444899.298 2915998.98 109 
2450 7981206.243 3720846.413 110 
2470 1521610.547 708577.2174 108 
2490 29282305.18 18195564.91 147 
2510 3138364.908 1356810.49 115 
2530 32403463.28 15766334.85 160 
2550 19912161.22 8604362.455 147 
2570 26989598.21 10709424.16 161 
2590 77906550.63 42285392.09 148 
2610 96234250.95 62582927.43 160 
2630 4602498.973 2241947.588 167 
2650 21944742.57 10629234.04 185 
2670 37297526.05 18017181.72 182 
2690 16586151.06 7648612.248 169 
2710 20708249.99 8248826.482 165 
2730 66007072.79 39390412.77 209 
2750 26627058.84 15017456.68 196 
2770 41153972.69 18485959.2 201 
2790 39605387.89 16526388.54 196 
2810 51684808.27 33063469.32 212 
2830 23451061.12 10958136.05 258 
2850 8871000.175 3485144.908 249 
2870 30928566.44 13188750.36 241 
2890 18218799.95 9804596.17 256 
2910 16230752.84 7325189.866 255 
2930 58698794.03 34538385.57 272 
2950 46739559.73 32246181.9 293 
2970 35626254.57 17657511.41 282 
2990 14910781.89 10842770.74 294 
3010 10803241.09 5157290.803 310 
3030 11829015.73 4274392.971 320 
3050 43442254.94 23832478.19 361 
3070 26679725.52 9728221.87 370 
3090 32996632.16 13274165.99 359 
3110 13856424.3 4983190.258 396 
3130 30544555.34 15757732.65 388 
3150 16461270.39 6931601.079 408 
3170 82045394.36 66612244.22 473 
3190 62979068.27 22058893.85 442 
3210 91020919.69 53504038.7 467 
3230 10367779.3 4506601.135 473 
3250 26672850.99 8718456.031 531 
3270 43298187.43 14840885.5 504 
3290 36313652.62 14766966.05 534 
3310 27741112.3 18752495.44 549 
3330 27507702.87 11588890.44 600 
3350 42018368.95 29386846.34 593 
3370 39529240.48 15236920.88 640 
3390 36387592.78 18869968.92 695 
3410 15069008.43 5348511.065 710 
3430 16871603.76 6485966.487 730 
3450 22654615.48 9363973.966 732 
3470 13652708.48 5985038.164 786 
3490 85714065 68367441.36 801 
3510 62767316.56 25688894.12 777 
3530 28839653.15 8276935.958 885 
3550 73659791.69 39565056.94 881 
3570 29982850.64 9667489.277 904 
3590 71352890.1 35820264.18 952 
3610 121560907.5 39238826.2 984 
3630 26032370.41 6940423.831 1005 
3650 167340668.2 116559314.4 1079 
3670 60568276.09 16333520.51 1112 
3690 49415912.11 17074320.02 1137 
3710 38693037.98 13591580.3 1177 
3730 99918463.15 47424468.63 1192 
3750 92527004.65 54455634.99 1242 
3770 26966107.36 9147101.774 1221 
3790 57151516.43 16390469.84 1309 
3810 34167582.42 12273419.53 1390 
3830 26525629.15 7166700.511 1434 
3850 87986612.78 28650463.48 1533 
3870 74909171.18 24387059.1 1477 
3890 102201235.7 44791674.27 1576 
3910 44061715.39 11718376.69 1605 
3930 56434842.7 10955140.94 1646 
3950 50017720.63 20616929.39 1705 
3970 41011815.1 12547005.22 1715 
3990 62763471.33 17869889.98 1767 
4010 56360056 16449035.99 1872 
4030 77026394.77 20622160.35 1922 
4050 63425643.72 19403026.89 1969 
4070 61116321.48 14762170.04 2103 
4090 176937318 118639442 2068 
4110 53175308.82 13041651.53 2187 
4130 28311285.4 5855247.528 2202 
4150 62100808.23 18500101.84 2236 
4170 71218337.12 16875419.56 2374 
4190 118677872.7 69280982.59 2417 
4210 173661607.8 71831190.17 2467 
4230 101449999.6 25125863.58 2523 
4250 58386773.94 12647342.6 2565 
4270 63588294.5 16507577.04 2590 
4290 46522684.24 10553333.72 2711 
4310 57853687.29 13678913.27 2761 
4330 61510338.21 13136773.73 2873 
4350 47963658.2 9107690.811 2952 
4370 61272680.38 14735117.04 2974 
4390 80126633.84 16949577.73 3130 
4410 82290452.64 33919190.54 3154 
4430 70902391.91 13610606.75 3235 
4450 73812032.39 16884730.25 3082 
4470 199429584.5 124242633.8 3324 
4490 116903468.9 33594283.89 3390 
4510 88161211.4 15333384.56 3424 
4530 72357454.6 15773802.48 3419 
4550 89159581.43 29583401.77 3597 
4570 78539729.89 22423911.31 3555 
4590 90089631.83 21562137.34 3812 
4610 99468974.08 20784110.98 3888 
4630 82278249.89 21054071.43 3992 
4650 69345463.14 25152413.74 3996 
4670 74447908.69 16337174.86 4156 
4690 80203399.28 14946396.11 4186 
4710 65112176.57 12218269.94 4174 
4730 56977784.55 12781076.83 4322 
4750 54996717.74 12676124.08 4424 
4770 173540180 55364385.32 4456 
4790 86921675.08 21044618.04 4620 
4810 121119442.2 35745565.21 4550 
4830 84538140.12 13877365.08 4789 
4850 77006546.35 15602814.98 4760 
4870 84572854.97 24235683.85 4963 
4890 88856842.43 23650018.52 4940 
4910 113354919.9 26040593.8 5082 
4930 99946878.36 21766600.58 5291 
4950 168513997.2 66679553.9 5201 
4970 110892578.7 28265395.82 5303 
4990 90848233.65 22171437.83 5270 
5010 68585563.96 14162158.71 5429 
5030 79128853.82 13407944.52 5657 
5050 143155605.4 47668468.24 5729 
5070 92764103.62 17605868.15 5712 
5090 117854977.3 26637613.19 5929 
5110 185501277.6 44322484.79 6018 
5130 78607521.63 15881261.21 6010 
5150 85520376.47 17873122.9 6053 
5170 147282520.5 31199279.2 6040 
5190 159545217.2 35791677.13 6278 
5210 85532150.18 18353853.72 6414 
5230 99324871.75 19364231.54 6333 
5250 116105567.4 32383345.32 6363 
5270 162480955.9 31216185.11 6664 
5290 143442936.9 28123351.27 6762 
5310 90385035.35 15055263.25 6826 
5330 132637192.2 29075280.35 6717 
5350 131016351.1 37681376.27 6870 
5370 136840025.5 32949736.98 6964 
5390 130425011.6 20810069.37 7043 
5410 110987581.1 19149785.67 7373 
5430 97171889.23 20061887.03 7289 
5450 85351387.75 13688951.03 7422 
5470 97615419.08 14098059.99 7403 
5490 103165037.3 15390833.97 7593 
5510 133507543.2 25529271.9 7497 
5530 156463468.6 44082273.26 7689 
5550 113575951.5 21592034.4 7783 
5570 163451968.5 31096536.46 7900 
5590 121190583.3 21601995.89 8060 
5610 194830409.8 36929810.89 8085 
5630 121276173.2 23779292.64 8173 
5650 163957885.9 25929333.56 8273 
5670 194608110 43608344.89 8293 
5690 123483939 20949575.22 8456 
5710 188789075.4 34337807.87 8559 
5730 123806724.1 21394878.39 8535 
5750 173617833 30636379.57 8539 
5770 177968832.1 36240588.85 8833 
5790 147147376.1 24338574.04 8882 
5810 134556046 24309589.71 8856 
5830 116015275.9 18805187.56 9008 
5850 194999423.4 40124466.82 8969 
5870 116166804.6 16695250.79 9134 
5890 137331871.6 29544660.34 9238 
5910 136935156.9 20914583.2 9136 
5930 164378226 29116170.42 9287 
5950 157002466.3 20253391.48 9228 
5970 143458833.7 24716105.05 9547 
5990 145517482 23708699.29 9382 
6010 177535349.9 34674774 9550 
6030 118529392.6 19087507.07 9451 
6050 159638030.4 25302723.14 9820 
6070 116295694.8 16226470.86 9621 
6090 174755209.2 28093852.45 9857 
6110 188499654.7 38411159.82 9961 
6130 168304501.7 31023834.1 10093 
6150 156982609.1 25189699.41 10164 
6170 128319059.4 17974835.87 10145 
6190 215550145.7 43558039.75 10345 
6210 204368209.8 36542266.03 10183 
6230 140512450.4 20693456.31 10171 
6250 160406521.2 31319595.27 10334 
6270 193652938.9 29267719.81 10469 
6290 175582155.5 30932829.17 10549 
6310 188531313.3 36582448.25 10681 
6330 156928719.3 21187299.13 10622 
6350 157828342.3 27971568.83 10696 
6370 130729085.8 17858735.99 10907 
6390 189065605.8 31672508.49 10858 
6410 189405194.9 39628406.26 11050 
6430 198882533.7 30685909 11143 
6450 178670248.2 28119423.31 10958 
6470 183265408.3 28507907.93 11287 
6490 173925049.4 26761561.11 11000 
6510 131066548.5 25272450.05 11129 
6530 198502071.1 32097806.79 11122 
6550 186547615.6 41289637.5 11139 
6570 196324618.1 29143963.92 11569 
6590 228874167.9 40762761.8 11226 
6610 158318137 30987345.73 11338 
6630 181114808.9 26612406.21 11255 
6650 202474537 35317851.45 11326 
6670 173143895.6 22829742.09 11389 
6690 148521215.8 20851061.64 11449 
6710 220747812.5 32170690.54 11364 
6730 203135677.2 40426324.44 11604 
6750 229997691 43413304.78 11460 
6770 153501567.9 20570018.45 11628 
6790 173925414.4 24509884.52 11326 
6810 201865262.2 36500391.19 11759 
6830 240707579.6 41573000.15 11751 
6850 194714828.6 32224969.6 11830 
6870 218826964.1 33221001.62 11609 
6890 162149701.2 23818468.46 11904 
6910 207444759.5 29741205.76 11805 
6930 243871277 34688095.08 11769 
6950 203060568.1 33551300.69 11777 
6970 173272108 24895283.42 11733 
6990 229148486.2 33759727.3 11830 
7010 197942283.8 30098763.62 11822 
7030 201060099.5 37032216.28 11986 
7050 192954335.2 33600346.22 12042 
7070 249563312.1 40791445.68 11934 
7090 220429041.1 37216444.61 11834 
7110 227365172.4 40493648.54 12063 
7130 235598673.4 34014168.71 11932 
7150 234015554.2 32041593.93 11886 
7170 188541631.5 32308040.51 12068 
7190 243257051.6 39046677.11 11958 
7210 202567178.2 31093999.96 12042 
7230 194577994.6 33911187.66 11648 
7250 271016676.3 42672238 12091 
7270 204394782.5 29412945.21 11782 
7290 227306465 31384483.98 11798 
7310 156431727.4 26085297.53 11909 
7330 178087237.4 24799737.9 11715 
7350 197396230.3 28127001.84 11826 
7370 171162252.2 24693297.52 11811 
7390 230010050.6 33712236.34 11884 
7410 173849901.7 22528539.9 11730 
7430 170809167.5 24661140.56 11889 
7450 216259499.8 36158250.8 11882 
7470 215962661.9 28054185.03 11656 
7490 177849977.6 23237283.46 11527 
7510 210531691 38613916.98 11768 
7530 243972451.9 36912016.58 11901 
7550 162262486 19733701.39 11889 
7570 186433136.4 26996856.02 11853 
7590 183897242.4 29158142.85 11789 
7610 244148864.4 32489128.23 11697 
7630 171533815.2 34694297.89 11607 
7650 249866221.1 39719680.29 11645 
7670 226412216.5 32594347.76 11692 
7690 236831580.6 48050903.45 11671 
7710 269762538 42808870.24 11458 
7730 249431932.2 37752219.7 11488 
7750 270557364.1 47308509.41 11398 
7770 200566757.8 26931115 11478 
7790 249261246.1 40029718.18 11442 
7810 253979334.5 37949792.6 11399 
7830 239268693.4 35768042.16 11361 
7850 185134849.3 26742389.1 11511 
7870 186541492.6 25172236.81 11425 
7890 224368199.8 36564848.93 11488 
7910 173862216.4 30123906.97 11282 
7930 150389224.2 22738048.25 11304 
7950 156906456.8 22453754.4 11347 
7970 207740479 35443767.63 11134 
7990 198700255.3 29915528.06 11222 
8010 235075656.5 42186136.56 11176 
8030 227766256.7 28697664 11109 
8050 194569434.3 27120901.4 10966 
8070 295619174.1 38298398.61 11182 
8090 272501868 45228906.73 10869 
8110 219852489.9 37643112.39 11135 
8130 246838152.4 36270503.46 10877 
8150 215206010 28631933.73 10851 
8170 213921173.7 32542379.17 10874 
8190 231425355.9 36333606.16 11017 
8210 259531233.2 40489419.41 10693 
8230 176376920.8 31291274.82 10743 
8250 243887023.7 31836426.32 10521 
8270 233385058.6 33757273.23 10593 
8290 257121777.2 40121615.78 10562 
8310 238803728.9 31917765.68 10531 
8330 246579986.3 33104527.93 10467 
8350 179078633.8 24433456.75 10504 
8370 223419452.1 30557105.07 10435 
8390 243416878.7 35955897.69 10553 
8410 207831242.4 27300168.24 10283 
8430 312767951.3 44890830.84 10420 
8450 327377375.4 43795612.56 10123 
8470 249701791.5 35004281.92 10442 
8490 230212092.9 35957854.98 10300 
8510 164745052.6 27837768.51 10053 
8530 351669965.4 52306077.02 10205 
8550 163906893.4 22707426.56 10031 
8570 347715601.8 55060926.28 9932 
8590 287793200.9 41727287.34 10009 
8610 194047497.1 30429066.97 9875 
8630 270358495.7 38029765.34 10003 
8650 314763017.2 39510640.69 9932 
8670 236398827.4 32050025.69 9928 
8690 211802117 30585343.14 9777 
8710 347964149.1 55477218.46 9865 
8730 238559173.2 28295191.47 9735 
8750 239874770.4 36132334.87 9527 
8770 267987795.9 48444894.51 9488 
8790 252343679.9 33333524.09 9614 
8810 229539497.4 31503096.74 9485 
8830 278029873.9 34491197.28 9751 
8850 279195628 38318623.29 9269 
8870 275082339.7 42119294.22 9464 
8890 329577613.6 48842282.79 9462 
8910 279272028.4 40873788.19 9351 
8930 230248837.2 27120875.86 9261 
8950 210260462.7 33672906.19 9292 
8970 268720171 46474063.6 9137 
8990 305227277.7 47736921.08 9153 
9010 274274612.1 34866264.92 9236 
9030 247863961.3 32931849.87 9074 
9050 307149759.2 43416808.82 8996 
9070 256180337.8 34585647.06 8903 
9090 267189457.9 40329566.17 9096 
9110 239050056.3 35152699.34 9012 
9130 277260884.2 30249183.36 8883 
9150 340833022 58183525.75 8896 
9170 278110024.4 38796491.89 8836 
9190 388218083.6 60161169.05 8882 
9210 275961026 41562236.96 8515 
9230 234199029.7 29147729.63 8752 
9250 297684292.9 35323915.09 8485 
9270 301179920.7 43690928.38 8672 
9290 348191839.3 55993108.39 8446 
9310 268596389.8 31787020.59 8438 
9330 319495467.1 44492280.08 8419 
9350 325382782.5 38689375.49 8314 
9370 300732897.9 40460576.4 8237 
9390 284426507.9 34652168.08 8053 
9410 314903057.2 35333420.01 8153 
9430 311589497.6 49092962.86 8201 
9450 363791240.5 53976033.23 8240 
9470 329429184.1 43006795.47 8222 
9490 309177069.5 41338739.85 8082 
9510 305192766.2 36676949.56 8118 
9530 338350799.6 54693267.3 8021 
9550 353868136 49166562.76 8088 
9570 326458594.4 50491100.53 7956 
9590 316687187.6 40387133.45 7794 
9610 333230806.5 42536714.82 7859 
9630 305891569.4 41927512.19 7851 
9650 406635845 64241347.13 7686 
9670 345485100 45681255.28 7688 
9690 385026377.6 59780089.36 7651 
9710 388790947.6 47422606.57 7543 
9730 421016656.5 59546404.9 7666 
9750 331030339.7 37532516.73 7537 
9770 301608771.1 40973493.72 7409 
9790 396689622.4 55964503.23 7560 
9810 271340177 28926556.41 7477 
9830 297887326.2 33496073.89 7286 
9850 380686766.5 51383085.02 7403 
9870 394295352.1 52052267.63 7270 
9890 416774873.1 54036899.67 7377 
9910 390112837.8 59215389.64 7270 
9930 407247417 45908951.92 7199 
9950 445639930.9 48862799.19 7166 
9970 423675051.2 55999270.67 7012 
9990 446464850.4 60600476.16 7094 
10010 354331119.7 37090446.75 7083 
10030 331625836.9 35128806.25 7009 
10050 374030053.7 40667174.59 6952 
10070 373259609.6 40290675.31 6916 
10090 449049092.1 53352918.23 6953 
10110 378204382.4 43681476.81 7082 
10130 435365441.3 44466513.31 6813 
10150 334865612.6 42189904.67 6732 
10170 454459576.1 53941933.01 6778 
10190 411184553.4 43352497.87 6616 
10210 468066583.7 56816582.77 6624 
10230 426558181.4 46814730.88 6663 
10250 384057775.2 51502977.21 6563 
10270 390363095.8 45699975.4 6735 
10290 448818980.1 47408821.95 6643 
10310 387333963.7 49343223.25 6577 
10330 421805894.8 48292602.53 6518 
10350 518935238.9 58327927.94 6366 
10370 359647459.6 48108602.31 6442 
10390 372712697 38765939.83 6461 
10410 437843816.3 47702926.37 6376 
10430 365538467.3 42732978.25 6372 
10450 436392673.3 50330611.94 6349 
10470 463707814.4 50241519.41 6279 
10490 392808775.1 45453392.12 6315 
10510 487438811.8 61175233.44 6139 
10530 461416076.3 45023377.02 6245 
10550 411536856.2 40299487.59 6130 
10570 490420334.6 52895038.62 6201 
10590 377423876.7 47261344.25 6167 
10610 517864838.9 60671134.21 6077 
10630 425393058.6 42257394.28 6095 
10650 474300120.6 51780071.49 6055 
10670 441008515.1 45247781.79 6053 
10690 353011201.6 33940540.83 5982 
10710 503346299.4 49884942.28 6155 
10730 498871143.8 56794914.85 5902 
10750 469799308.6 55945008.31 5903 
10770 485779509.5 50483536.58 5833 
10790 521217329.9 59873689.34 5755 
10810 420265106.7 46486692.87 5855 
10830 452780228.6 48285190.12 5789 
10850 421330373.6 40713134.23 5611 
10870 493698404.6 59625393.17 5721 
10890 456672796 42205096.15 5769 
10910 471030039.2 44317614.16 5658 
10930 621957038.1 67931792.03 5688 
10950 466824587 50992328.19 5574 
10970 464040816.5 46225222.92 5534 
10990 502934363 50063423.77 5694 
11010 387140636.7 38977930.29 5508 
11030 527324568.2 52223340.45 5564 
11050 584159785.4 52208584.87 5542 
11070 508186777.1 57112690.36 5501 
11090 558071161.9 55028207.41 5496 
11110 435178844.9 39135133.18 5278 
11130 503057197.1 51303565.77 5454 
11150 470533074.7 49398798.34 5367 
11170 548717984.5 63923996.25 5484 
11190 468984691.6 47063065.23 5313 
11210 527995027 56635689.15 5292 
11230 471799087.7 42166323.28 5223 
11250 543090592.2 73018962.59 5197 
11270 482548203.2 53021299.84 5221 
11290 478098799.7 42505627.43 5235 
11310 457197274.7 40739541.97 5094 
11330 437443861.6 48654137.67 5082 
11350 476902563.8 44939534.61 5021 
11370 523523054.8 50294541.32 5146 
11390 526202155.3 53026132.54 5042 
11410 506295974.8 49226937.49 5066 
11430 444496261.3 46678596.26 5072 
11450 497554553.7 49648814.06 4893 
11470 468262064.3 47970529.29 4907 
11490 524516580.4 57958315.07 4884 
11510 608460855.9 62270682.62 4995 
11530 607744050.9 64498918.25 4992 
11550 522072504.8 58480769.51 4933 
11570 467711993.6 48935025.02 4948 
11590 558628433.4 62722925.83 4949 
11610 525183202.2 51794417.13 4714 
11630 457963646.2 50576976.67 4730 
11650 539512829.7 47608788.86 4762 
11670 491541281.5 44560052.82 4682 
11690 484076190.9 53151409.18 4688 
11710 517286417.4 57907313.62 4719 
11730 465495574.5 54191178.35 4672 
11750 490056394.9 43522693.12 4689 
11770 591931240.6 60222701.6 4627 
11790 552035905.7 60796893.72 4608 
11810 594834314.6 71609877.79 4466 
11830 544137335 50768195.38 4586 
11850 574690511 56521826.05 4589 
11870 470162988.6 48298201.58 4539 
11890 543212304.2 47012161.13 4464 
11910 600160691.1 61423408.21 4562 
11930 484501340 41694827.22 4506 
11950 523921828.9 52982255.95 4377 
11970 560514676.3 49526985.72 4406 
11990 507877891.7 46572383.57 4494 
12010 520025453.4 48077943.08 4338 
12030 559578135.1 64934146.11 4471 
12050 559133895.4 52287477.19 4299 
12070 650177714.6 61426698.56 4409 
12090 523963810.7 49656694.24 4329 
12110 500111674.6 43828507.19 4249 
12130 580403300.6 53823720.41 4390 
12150 540454243.9 49989713.28 4220 
12170 481342006.2 44023991.98 4066 
12190 559690571.4 49299229.04 4149 
12210 505107887.6 44029881.77 4364 
12230 584330960.2 58862788.87 4123 
12250 492043911 42801235.6 4232 
12270 581536911.4 62440497.64 4157 
12290 448646405.7 39356342.64 4145 
12310 490839733.3 44547850.75 4073 
12330 579157318.3 53674633.02 4190 
12350 436589106.1 48993897.17 3988 
12370 642140164.7 74301314.19 4053 
12390 494778311.1 43630707.86 4033 
12410 486951379.4 42476005.49 4059 
12430 534831557 47758440.02 3950 
12450 507759294.9 43111714.04 3947 
12470 461964620 46686435.24 3897 
12490 547722321.1 46597787.28 4000 
12510 485560350.1 43221828.64 3863 
12530 435892155.8 53300480.03 3761 
12550 533225020.9 45219916.59 3909 
12570 598173274.8 70593394.15 3743 
12590 490687730.4 40081874.41 3853 
12610 516796370.8 46777921.73 3793 
12630 512845929.2 48570214.33 3822 
12650 520549046.4 45728069.89 3771 
12670 471098386.7 47618678.39 3891 
12690 473723927.9 43251684.47 3770 
12710 541672701.5 63120686.2 3740 
12730 556747328.1 49080783.1 3717 
12750 554282285 46862013.8 3702 
12770 518626055.5 58503398.7 3798 
12790 554777961.5 56825575.79 3660 
12810 536043551.6 54196350.62 3655 
12830 485393205.8 44531194.21 3676 
12850 497364231 47869004.15 3496 
12870 482281342.8 43577253.92 3525 
12890 520061707.9 51778921.27 3612 
12910 518394326.3 47028374.11 3537 
12930 579285355.5 57530438.78 3561 
12950 476342487.4 45253025.85 3574 
12970 471735299.3 46686504.32 3447 
12990 537145985.3 51133249.98 3582 
13010 470684473 53025314.54 3471 
13030 453075464.2 40997400.71 3502 
13050 417394747.2 42426346.88 3449 
13070 546924594.2 68246933.52 3436 
13090 523312842.6 44989891.7 3403 
13110 408591667.6 36019083.12 3426 
13130 619151940.6 53751519.05 3378 
13150 555119923.1 57530009.25 3410 
13170 554622038.3 47642674.79 3380 
13190 497461529 43527619.41 3398 
13210 464835304.1 43589475.17 3282 
13230 398521243.8 43164316 3266 
13250 458117358.2 43517119 3380 
13270 483138601.3 59598453.25 3347 
13290 496245836.5 48034380.98 3286 
13310 438433217.2 38173374.78 3379 
13330 426916977.8 39794875.27 3217 
13350 563664560.8 54095848.27 3209 
13370 411076625.5 38963879.79 3132 
13390 502885060.1 45564478.77 3251 
13410 499856228.8 51083148.68 3175 
13430 535152345.9 49577447.88 3190 
13450 522349635 53886538.55 3230 
13470 476300831.1 49631163.23 3137 
13490 427525890.7 39129934.3 3287 
13510 402002674.5 37009568.04 3015 
13530 516108732.3 47237744.03 3107 
13550 600093299.5 55611397.72 3096 
13570 476883667.6 62629483.85 3016 
13590 521598482.1 45588653.27 3027 
13610 481728204.3 69359560.28 3154 
13630 438633157.8 40626004.08 2951 
13650 392697194.5 38389344.3 3060 
13670 459319850.2 43469966.95 3111 
13690 450458302.7 61173956.46 3008 
13710 501165674.9 47774998.43 2940 
13730 472675456.8 45816598.46 2996 
13750 408196590.8 40918479.78 2966 
13770 522371652 50481486.5 3002 
13790 427110037.1 37248843.96 3013 
13810 467605567.3 62879747.37 2908 
13830 435725743.1 63295368.35 2942 
13850 528503778.3 48474985.93 2866 
13870 413297735.6 45359624.73 2862 
13890 425613893.4 39032181.92 2929 
13910 470866790.6 61833750.98 2880 
13930 405788020.2 37242906.56 2898 
13950 403458958.7 39000466.18 2823 
13970 407735106.9 37161253.89 2896 
13990 408630224.6 36357604.56 2861 
14010 387901843.8 35142630.06 2774 
14030 455913057.5 41856937.68 2775 
14050 362952205.8 36575898.32 2702 
14070 383599522.5 42158733.71 2768 
14090 452655748.8 45282796.68 2772 
14110 461618203.6 63414895.63 2759 
14130 473454822.5 65122966.38 2811 
14150 372208566.3 36776427.66 2704 
14170 420972580.3 40263509.19 2692 
14190 421258501 40558129.33 2779 
14210 422321437 43737481.49 2657 
14230 477738914 61817674.13 2762 
14250 343555798.8 32638529.74 2615 
14270 438003696.5 40040207.93 2622 
14290 434100465 40356761.09 2607 
14310 423724972.7 41647786.21 2594 
14330 368803688.3 36107548.94 2620 
14350 351772532.1 34772408.11 2608 
14370 385145273.1 34572118.04 2575 
14390 529030715.9 68037842.66 2553 
14410 406201458.3 39195808.39 2656 
14430 370002004.1 36048863.29 2592 
14450 466888314.7 46898123.32 2653 
14470 423663205.1 40091185.12 2528 
14490 456964966.4 50212434.46 2601 
14510 385715515.1 36682088.04 2512 
14530 378165595.6 35210703.23 2536 
14550 458285505.9 41936411.58 2515 
14570 422746152.7 37700879 2472 
14590 465051880.3 61287785.95 2519 
14610 376549723.2 36484044.75 2535 
14630 517249662.2 76115798.82 2418 
14650 447375957.3 59943571.25 2436 
14670 365995025.1 36316797.51 2496 
14690 457144191.8 51440576.46 2428 
14710 387157097.9 36303199.99 2378 
14730 354119188.1 31897213.37 2357 
14750 396149539.4 56668473.49 2400 
14770 411800596 45823895.71 2345 
14790 338178915.7 33232829.96 2385 
14810 335960839.2 35916729.61 2248 
14830 398290795.2 37976328.22 2423 
14850 429919912.9 61353063.4 2383 
14870 397949562.3 39719823.82 2367 
14890 334662914.4 32106989.44 2271 
14910 435961177.7 71164636.93 2309 
14930 360193130 34362999.03 2269 
14950 371728504.3 35296549.26 2243 
14970 426585635 69593155.43 2281 
14990 357309430.8 34627754.14 2205 
15010 406029968 39526150.12 2260 
15030 389897969.6 61492737.64 2248 
15050 419170804.1 40425048.03 2270 
15070 429368441.8 60381905.04 2280 
15090 287518861.1 29171104.55 2249 
15110 360155895.8 45284609.65 2157 
15130 361569306.9 33040543.61 2279 
15150 434208835.4 49960708.42 2253 
15170 375069574.7 38426433.12 2318 
15190 332839623 32437103.41 2137 
15210 322595305.6 33408847.7 2114 
15230 363601226.6 40878275.95 2196 
15250 381392978.9 36557212.61 2159 
15270 310807256.4 30542440.94 2167 
15290 330239119.8 34959075.61 2093 
15310 373765526.1 32781111.65 2134 
15330 387681676.4 39285966.75 2228 
15350 395835420.9 40874612.21 2148 
15370 451759102.3 84400747.54 2154 
15390 301296775.3 30962600.78 2075 
15410 307837700 30025555.48 2068 
15430 402988298.5 36152422.66 2080 
15450 423398720.4 69520151.98 2049 
15470 389308125.2 38399112.4 2096 
15490 311277028.6 34499186.84 2083 
15510 357834244.3 34425846.2 2048 
15530 401701539.6 39563506.32 2169 
15550 347937152.1 35520942.31 2098 
15570 375945896 36689258.42 2107 
15590 284098623.5 27417091.03 2050 
15610 354956462.2 33951713.84 2055 
15630 359480320.6 35491709.23 1976 
15650 386271269.4 58762898.57 1961 
15670 273655677.6 30924398.59 1970 
15690 354058646.8 35399135.53 1996 
15710 244362622.9 25181830.06 2000 
15730 305571621.4 28307043.84 1971 
15750 337470275.2 35128665.22 1943 
15770 430359696.2 52528344.59 1973 
15790 361257724.7 33439358.66 1974 
15810 378827795.6 58314356.29 1958 
15830 287326014.6 32577020.11 1867 
15850 282823067.6 28361451.48 1969 
15870 264772656.3 26099865.75 1915 
15890 280354592.8 29281524.49 1900 
15910 378038434 50742081.07 1858 
15930 321167385.9 30917475.33 1881 
15950 315991218.6 56817037.9 1881 
15970 319972365.4 30971839.37 1915 
15990 261984800.9 25984868.59 1945 
16010 383658430.3 40304535.21 1938 
16030 302308672.9 31134012.95 1801 
16050 295157640.8 32440890.1 1891 
16070 401035387.1 61960723.32 1963 
16090 267711042.8 28601963.97 1879 
16110 312373760.6 35593516.76 1821 
16130 347338531.6 35963184.02 1822 
16150 413942313.4 52930880.91 1818 
16170 323505135 36174344.92 1830 
16190 239048870.7 25978759.91 1842 
16210 291716016.4 30979352.97 1807 
16230 267162776.5 26565186.73 1818 
16250 301642726.7 31461277.51 1829 
16270 299305673.2 30339951.97 1851 
16290 339586922.7 35896818.65 1810 
16310 245896360.7 28984564.69 1717 
16330 347316989.2 37720721.52 1759 
16350 415429799.4 70825278 1757 
16370 352247567.8 43855356.28 1790 
16390 273538879.9 31630325.78 1762 
16410 385744610.8 63088580.83 1822 
16430 313957064.6 32540133.78 1750 
16450 296988974.1 35490579.3 1759 
16470 353684836.4 36501758.02 1705 
16490 323660216.6 57931672.13 1756 
16510 246507570.4 25131209.89 1764 
16530 356355354.9 39479860.19 1754 
16550 261189307.4 26762448.97 1690 
16570 264193513.3 27502055.98 1621 
16590 279545501.7 27054482.87 1753 
16610 311831543.9 46273073.02 1797 
16630 270310764.6 31720364.9 1615 
16650 303036049.7 29715791.69 1678 
16670 271535514.3 38878929.29 1693 
16690 268121882.8 29921228.7 1645 
16710 338637341.2 43165611.39 1717 
16730 336227017.3 37031907.24 1643 
16750 302873626.3 47794271.8 1641 
16770 270456392.5 27318197.73 1672 
16790 245957595.9 28185494.41 1675 
16810 286963537.7 32646926.07 1660 
16830 249767187.6 29680744.79 1547 
16850 331784469 40503680.22 1733 
16870 244524838 28945299.88 1663 
16890 344907570 49679949.86 1669 
16910 311866081.1 63845008.94 1665 
16930 350489852.8 42309482.9 1557 
16950 248378691.7 29596049.35 1699 
16970 346498837.3 55370692.89 1656 
16990 292171472.7 35466689.09 1598 
17010 262362464.4 47225619.36 1574 
17030 295584615.9 29510827.02 1616 
17050 375169595.6 84069498.45 1578 
17070 263046366.7 30834121.96 1577 
17090 284159244.4 32280670.23 1549 
17110 247077170.8 26264486.43 1621 
17130 361674913.4 69149893.03 1577 
17150 234235330.7 28749182.14 1497 
17170 304936803.1 40088276.3 1548 
17190 253867522.4 33017360.65 1494 
17210 349212804.2 58311442.39 1547 
17230 224384437.7 28760220.57 1557 
17250 378625098.8 80210332.04 1605 
17270 262651576.3 32374259.23 1566 
17290 261477261.1 27509918.43 1555 
17310 255417285.3 27963564.38 1507 
17330 229224112.8 25439047.82 1524 
17350 219937258.4 25682905.03 1535 
17370 298372879.2 47428296.67 1497 
17390 278046356.7 33394021.01 1501 
17410 264747155.4 35365644.97 1461 
17430 186338364.3 21622448.62 1539 
17450 225177204.1 23761818.04 1482 
17470 246485463.4 32697206.86 1480 
17490 337452331.7 82616651.44 1500 
17510 268832996.9 30417798.51 1534 
17530 261935984.2 28394079.64 1536 
17550 217905951.9 24307304.01 1451 
17570 225172250.5 24067315.5 1504 
17590 290226735.7 28985629.12 1447 
17610 216340202.7 26639014.2 1469 
17630 231737582.1 24535948.55 1548 
17650 231630896.7 26643527.37 1555 
17670 266422959.7 31550832.43 1428 
17690 211014929.5 24929263.49 1443 
17710 374740177 89141577.66 1494 
17730 189891659.2 22980402.47 1426 
17750 284972585.1 37585426.33 1496 
17770 238532718.3 26097877.93 1420 
17790 215222385.2 24788960.48 1395 
17810 234367253.7 24164958.91 1520 
17830 243782443.3 32448860.23 1390 
17850 256056136.3 28910036.42 1410 
17870 204639657.8 24551523.86 1347 
17890 265026281.7 31076821.84 1433 
17910 260939462 31910578.02 1419 
17930 248046532.6 31434748.53 1393 
17950 204743272.9 22918870.02 1426 
17970 206704698.7 25768376.94 1388 
17990 245362496.3 29770556.7 1408 
18010 245426866.8 27791561.55 1375 
18030 208897709.4 24727626.67 1375 
18050 207758033.3 21544384.68 1406 
18070 291504275.2 34354640.97 1386 
18090 266501978.8 28074027.51 1452 
18110 263850625.7 30335511.36 1401 
18130 212431790.1 24698654.23 1324 
18150 225482248.6 26173802.27 1340 
18170 229259378.9 26289315.85 1416 
18190 237561990.4 31931076.87 1360 
18210 202274134.7 23151191.43 1422 
18230 246864632.7 33509312.31 1308 
18250 173132103.6 19974331.09 1342 
18270 232195386.4 24632541.06 1320 
18290 305061008.3 66453868.74 1342 
18310 232399324.3 29261689.86 1328 
18330 235561138.5 27900286.92 1303 
18350 221730469 23437506.01 1290 
18370 226875054.3 25490351.83 1426 
18390 231909675.7 27736758.69 1335 
18410 226127189 28978566.15 1342 
18430 198323168.3 20928980.3 1328 
18450 211618104 22666722.33 1336 
18470 210632851.8 26687598.1 1302 
18490 291114015.4 52252344.86 1287 
18510 199756610.1 27372871.14 1255 
18530 241801738.6 27997585.74 1335 
18550 266988290.6 31098109.49 1339 
18570 222515996.2 39884153.56 1330 
18590 219018766.6 31263641.29 1265 
18610 238616241.3 31471211.35 1321 
18630 173909308 20649843.95 1288 
18650 215809835.5 24971670.78 1307 
18670 280969327.2 50160518.55 1299 
18690 211260374 23467947.57 1265 
18710 238185223.9 27325022.85 1229 
18730 278756050.7 60223327.47 1273 
18750 288166471.1 65144587.59 1275 
18770 211105113.1 26204474.85 1262 
18790 243284165.2 33211588.79 1245 
18810 216026712.6 24483708.55 1243 
18830 264308969.6 45457599.67 1291 
18850 197466219.1 22534537.95 1288 
18870 221958160.1 24761394.9 1308 
18890 280765798.7 39982747.88 1270 
18910 209697752 24604842.34 1232 
18930 227083981.7 26295174.23 1243 
18950 187019257.1 22415335.51 1178 
18970 257377213 30248336.88 1272 
18990 218364462 24839516.7 1232 
19010 181240248.2 21514279.12 1233 
19030 224945900 33180266.2 1216 
19050 181816448.7 22104153.97 1177 
19070 209964687.3 24277246.32 1309 
19090 174907532.8 21793291.31 1181 
19110 231588584.6 29379046.31 1252 
19130 149756103.9 18483940.01 1184 
19150 228837939.5 36598092.72 1200 
19170 189216359.2 23294369.31 1158 
19190 203411060.5 23366702.95 1236 
19210 186072044.4 29938623.33 1233 
19230 275958468 73424397.33 1223 
19250 241608285.4 34846743.41 1205 
19270 158244178.7 19802747.87 1203 
19290 155830256.8 18197171.46 1180 
19310 194355357.8 24531287.46 1186 
19330 155123855.7 19481011.39 1154 
19350 239420887.9 48621200.05 1185 
19370 211591757.2 23730696.51 1136 
19390 199654648.5 25352711.07 1123 
19410 171678824.2 21285450.96 1213 
19430 164728320.7 20835076.74 1116 
19450 171314717.2 22090795.91 1116 
19470 159639248.6 22182048.11 1179 
19490 295232275.2 69934692.51 1202 
19510 214981503.2 24917181.91 1111 
19530 153306024.8 19185271.69 1096 
19550 175856200 22148813.36 1103 
19570 206301155.3 32446254.11 1111 
19590 157389630.7 20208776.46 1085 
19610 178532979.5 24141377.82 1154 
19630 173195230.8 20498187.75 1119 
19650 164659239.9 22004950.64 1101 
19670 180585417.4 23627063.16 1096 
19690 184879472.1 29280107.11 1184 
19710 218640282 28753032.75 1122 
19730 154252517.8 18433733.38 1150 
19750 201555389.6 23557944.96 1087 
19770 183893113.3 25238428.22 1079 
19790 184614962.3 22316898.52 1149 
19810 214619192 28368684.74 1119 
19830 172133592.6 21448558.45 1131 
19850 157204015.1 20452355.93 1100 
19870 194302339 27013137.81 1035 
19890 192807074.6 23485245.91 1165 
19910 146629847.6 17534234.81 1076 
19930 157757971 21622907.26 1057 
19950 187195504 30084422.72 1044 
19970 169665126.6 24868211.91 1057 
19990 171296800.3 25153482.95 1064 
