# Format: McCode with text headers
# URL: http://www.mccode.org
# Creator: McStas 2.5 - Dec. 12, 2018
# Instrument: BIFROST_losses.instr
# Ncount: 174450495
# Trace: no
# Gravitation: no
# Seed: 1560250153
# Directory: BIFROST_losses_20190611_114821
# Nodes: 8
# Param: MCPL=1
# Param: CHOPPERS=0
# Param: sector=W
# Param: beamline=3
# Param: Lmin=0.2
# Param: Lmax=20
# Param: c_performance=1
# Param: t_performance=1
# Param: index=8
# Param: dist=0
# Param: cold=1
# Param: Yheight=0.03
# Param: delta=0
# Param: thres=0.003
# Param: filter=0
# Param: repeat=1
# Param: E_smear=0.1
# Param: pos_smear=0.01
# Param: dir_smear=0.01
# Param: WaveMin=0.1
# Param: WaveMax=99.5
# Param: pin_holeY=0.088
# Param: pin_holeX=0.03
# Param: E_0=4
# Param: L_0=0
# Param: chopPulseOpening=0.004
# Param: chopPulseFrequencyOrder=8
# Param: sampleSizeX=0.01
# Param: sampleSizeY=0.01
# Param: chopBWPos=78
# Param: DivSlit0_width=0.1
# Param: DivSlit1_width=0.1
# Param: DivSlit2_width=0.1
# Param: DivSlit3_width=0.1
# Param: BWopen=172.33
# Param: FOCopen1=37.79
# Param: FOCopen2=51.63
# Param: Npulse=1
# Param: PscOff=0.0306
# Param: discD=0.04
# Param: monigap_length=0.02
# Param: print=0
# Param: makeVirtualSource=0
# Param: printMValues=0
# Param: ROT=0
# Param: TX=0
# Param: TY=0
# Param: TZ=0
# Param: Center=0
# Date: Tue Jun 11 11:57:27 2019 (1560247047)
# type: array_1d(1000)
# Source: BIFROST_MCPL (BIFROST_losses.instr)
# component: ToFBeforeFOC2
# position: 11.1099 0 10.1632
# title: Time-of-flight monitor
# Ncount: 1395603960
# filename: ToFBeforeFOC2.dat
# statistics: X0=12377.1; dX=3939.11;
# signal: Min=80537.1; Max=6.23966e+08; Mean=2.49935e+08;
# values: 2.49935e+11 1.19229e+09 4.08568e+06
# xvar: t
# yvar: (I,I_err)
# xlabel: Time-of-flight [\gms]
# ylabel: Intensity
# xlimits: 0 20000
# variables: t I I_err N
10 8057153.045 8035110.264 2 
30 935991.6289 1039312.022 4 
50 1315166.686 1518623.681 3 
70 10413746.72 9368505.518 10 
90 1023025.824 614871.0199 6 
110 4274057.749 3908290.232 9 
130 353882.3885 342643.2726 8 
150 8066333.791 5974623.364 6 
170 648358.9016 538012.8978 9 
190 6114439.944 5062782.69 4 
210 2951021.214 2776418.96 7 
230 251716.7118 196873.5585 11 
250 9354987.705 6361902.798 7 
270 17453352.81 15173014.17 8 
290 10203213.91 7747985.299 15 
310 14493878.13 15219990.9 9 
330 48391938.63 51101181.4 8 
350 3066813.589 2495796.676 7 
370 412039.4804 349656.5096 10 
390 2711474.105 1982500.393 9 
410 11367346.96 9400608.895 10 
430 64914395.02 51092011.1 11 
450 9550256.426 5713919.069 12 
470 4812163.822 3069599.566 11 
490 4259586.976 2603148.972 12 
510 11223737.99 10156576.38 12 
530 1646210.516 1221995.61 10 
550 5967391.577 5826798.925 11 
570 4870113.096 3032662.825 12 
590 452332.5537 476486.5155 7 
610 1720041.641 1195331.278 8 
630 12729460.55 10671542.44 8 
650 6106246.671 4516848.483 10 
670 183429.2364 204999.4391 4 
690 22627207.2 15537270.67 17 
710 2962088.54 1963574.734 20 
730 14476719.16 10963418.72 10 
750 90355.22292 53892.2587 12 
770 3791693.357 3543795.724 16 
790 26201537.58 16813078.55 15 
810 8276229.903 5903033.263 9 
830 8921024.22 6020389.907 20 
850 1469083.694 850165.662 16 
870 7577527.656 6415557.616 16 
890 2551007.728 2095077.147 11 
910 208288.4799 207372.8211 10 
930 17698197.96 14628563.52 23 
950 5940192.293 4057222.316 19 
970 1314242.828 1158441.867 15 
990 1849348.005 1755002.742 12 
1010 10630917.12 7878000.012 18 
1030 5718661.651 3444224.773 17 
1050 28020296.28 16698158.77 22 
1070 17752379.26 10432361.35 19 
1090 92106817.84 59394412.77 24 
1110 5715186.769 4995076.978 23 
1130 1025892.698 644266.1438 21 
1150 7625799.888 3888486.243 26 
1170 15540541.34 14689504.95 15 
1190 900124.5472 920661.5718 10 
1210 1727424.515 1697303.39 20 
1230 80537.11421 63809.40403 19 
1250 10300158.09 6324439.952 19 
1270 54674609.37 36415575.9 17 
1290 8830779.367 8419883.89 25 
1310 15658646.05 9283520.645 29 
1330 27493710.17 17343944.94 20 
1350 6908655.001 4640202.89 27 
1370 697412.3635 358866.6033 29 
1390 4951218.25 2784484.641 24 
1410 1978849.624 1407899.554 23 
1430 9970717.639 5653463.045 30 
1450 14502377.76 9761274.714 31 
1470 6584631.666 4858926.456 24 
1490 22472149.75 12524204.88 39 
1510 15249653.46 8668867.378 19 
1530 2096496.505 1942780.053 33 
1550 36051391.09 32793394.07 28 
1570 13681165.01 7631225.066 38 
1590 7551634.409 5545034.781 37 
1610 28691964.52 15226662.69 32 
1630 14312653.12 7677341.013 43 
1650 1096642.893 857187.7883 38 
1670 9456784.811 5453906.154 41 
1690 13849787.39 12933603.12 41 
1710 26307425.83 16860533.99 57 
1730 28656180.24 16873463.19 43 
1750 18549815.28 9116790.406 59 
1770 8903593.418 3707226.509 49 
1790 72901118.7 44583947.18 52 
1810 60586611.63 49544637.88 57 
1830 16796748.07 10128867.81 44 
1850 10315039.31 7278927.468 50 
1870 17649096.8 12251629.29 57 
1890 3475321.054 2064176.105 61 
1910 7607911.103 6585323.994 49 
1930 29019764.95 24958580.5 47 
1950 19346404.53 11194432.47 60 
1970 10278966.17 4667864.023 77 
1990 24694354.35 15292851.65 65 
2010 10579173.8 7986526.243 74 
2030 38305843.15 17146104.02 53 
2050 16607555.56 8108376.749 66 
2070 20965190.73 9671664.992 74 
2090 66168529.53 50637434.11 71 
2110 18014591.52 8201752.078 89 
2130 8066468.816 3554304.392 72 
2150 21026295.17 15526811.74 88 
2170 11253775.86 5708048.408 97 
2190 32022050.3 14919800.03 89 
2210 34765575.42 13455628.8 90 
2230 13249970.33 7993714.912 76 
2250 8553057.95 3942779.016 91 
2270 10699276.43 5198153.673 103 
2290 25669241.09 11895268.03 109 
2310 20805078.77 11146901.46 92 
2330 6514884.146 3240790.501 96 
2350 37836110.33 22387401.42 112 
2370 166959203.9 115108288.2 103 
2390 22667477.36 15525638.5 109 
2410 21845583.77 8332193.054 132 
2430 7163421.537 3169903.735 110 
2450 6281069.054 3506764.416 112 
2470 1833482.607 782788.5653 108 
2490 29030848.6 18193051.41 146 
2510 3235907.636 1362308.552 119 
2530 32259226.57 15765173.28 162 
2550 23334573.29 8963623.789 146 
2570 23549323.29 10410914.06 161 
2590 131924654.1 68479423.97 153 
2610 43624591.84 31888551.25 158 
2630 10416225.1 5827599.041 170 
2650 21712208.46 11493333.13 183 
2670 30578600.5 16593836.23 181 
2690 19065453.89 8099967.607 171 
2710 17942559.82 7802310.559 168 
2730 67272921.33 39402950.32 204 
2750 25368198.46 14989451.96 201 
2770 41147294.88 18487079.25 196 
2790 40747350.34 16560008.72 203 
2810 52363494.97 33074172.48 216 
2830 23092840.28 10902184.15 250 
2850 9683627.94 3665859.131 268 
2870 29615950.15 13123537.79 249 
2890 19370759.4 9875096.699 249 
2910 14349123.43 7209958.268 256 
2930 65521039.86 34963465.38 264 
2950 46093527.52 32147329.34 299 
2970 29231776.64 16989110.35 286 
2990 15574669.8 10851964.79 288 
3010 10628910.56 5145550.743 310 
3030 28998058.47 16888457.58 338 
3050 27775672.7 17404670.62 354 
3070 29123916.97 10023904.38 371 
3090 29968328.59 13031095.22 366 
3110 13946172.91 4972049.802 405 
3130 29167408.72 15719350.34 376 
3150 16475630.18 6931558.917 430 
3170 90992907 66937902.09 487 
3190 53893741.37 21044858.88 411 
3210 93138779.66 53522995.82 483 
3230 10507808.31 4795269.541 479 
3250 37436573.8 10589815.21 531 
3270 30724287.4 13389158.44 518 
3290 36386739.08 14769797.82 513 
3310 28541629 18769268.5 579 
3330 26798983.44 11562918.61 608 
3350 50738062.41 29856841.24 618 
3370 33994883.93 14542855.83 632 
3390 35786026.97 18943572.47 692 
3410 13355027.63 4377637.766 722 
3430 26885744.13 10797726.23 731 
3450 17865115.98 6417914.38 739 
3470 9080423.828 2941694.18 777 
3490 107511996.3 69951965.42 795 
3510 44460764.15 21212405.13 803 
3530 73282493.32 39124657.82 886 
3550 31863909.91 11140905.94 902 
3570 27361562.6 8428521.047 893 
3590 73557472.56 35987048.47 976 
3610 123043191.7 39145521.98 1006 
3630 23640042.07 6918337.681 991 
3650 171799333.6 116734223 1107 
3670 49786639.71 14559207.38 1108 
3690 65188705.27 19569608.69 1138 
3710 75372777.93 37459213.17 1221 
3730 116526928.8 62199981.42 1171 
3750 27740497.13 6631132.82 1240 
3770 35574864.36 10345203.52 1230 
3790 49688424.09 15670208.29 1348 
3810 29936924.19 11983419.67 1370 
3830 30663886.13 8151568.1 1485 
3850 86048107.36 28541321.81 1499 
3870 81774373.45 24889287.99 1537 
3890 98581618.35 44546672.38 1534 
3910 49910435.02 12866051.85 1632 
3930 63987391.61 20569474.25 1665 
3950 35530591.99 9856114.653 1703 
3970 44615520.12 13691329.08 1730 
3990 56182064.78 16637288.01 1799 
4010 76639615.4 20484766.16 1888 
4030 68619208.54 18319690.25 1919 
4050 59718116.01 19889562.91 1990 
4070 60970327.48 12838096.2 2125 
4090 171586456.7 118545335.4 2076 
4110 54326772.68 13047350.92 2244 
4130 24464746.39 5373495.189 2155 
4150 67167992.4 18825573.27 2266 
4170 89774755.61 27446153.18 2451 
4190 104866268.8 66225903.09 2397 
4210 169995902.3 71465409.67 2420 
4230 103046430 25289300.8 2576 
4250 62881052.83 12960294.01 2598 
4270 58148021.52 16519297.98 2612 
4290 59266442.53 14362988.79 2715 
4310 53168362.41 10539919.51 2780 
4330 55611309.15 11747640.85 2913 
4350 45809050.36 9293647.795 2950 
4370 80873753.58 18723311.98 3024 
4390 72695607.45 16584970.91 3116 
4410 73582574.52 32284958.66 3183 
4430 71019080.09 13984170.38 3216 
4450 68050367.87 15685688.39 3198 
4470 211050216.9 124402673.5 3282 
4490 123435097 34151828.55 3372 
4510 77063845.85 13559644.33 3454 
4530 63710537.69 15164971.38 3409 
4550 96195845.3 30083086.68 3646 
4570 76708827.96 22007145.63 3588 
4590 128113994.3 27673460.03 3912 
4610 63829217.64 11969519.06 3878 
4630 80477535.22 20605530.47 4052 
4650 69415830.86 25427874.34 3990 
4670 79237167.88 16023811.8 4175 
4690 75244810.31 14829546.32 4167 
4710 66542944.91 11918676.11 4256 
4730 61399569.98 13585801.99 4300 
4750 57276320.07 13098836.96 4446 
4770 168156628.3 55220845.48 4483 
4790 96995105.58 21984306.01 4668 
4810 114439915.2 35267850.5 4571 
4830 89582562.33 14604530.89 4779 
4850 99103559.96 26089352.59 4823 
4870 51296437.81 10591395.76 4904 
4890 118304523 29497070.74 5084 
4910 95277925.81 21583720.87 5079 
4930 98145327.61 20246734.85 5343 
4950 186066930.8 68587810.71 5169 
4970 106156424.6 29054819.32 5279 
4990 76589575.9 13840867.11 5332 
5010 75478703.87 15447898.16 5607 
5030 69033394.53 11147773.51 5569 
5050 157427155 48488582.46 5742 
5070 91616691.7 18553376.38 5732 
5090 127504374.7 28524046.77 5995 
5110 170588106.1 41911440.75 5998 
5130 67028230.89 15469745.87 5995 
5150 89250483.06 17460051.83 6104 
5170 151549973.6 31408885.74 6109 
5190 152441971.4 35709009.83 6329 
5210 103880251.2 22324406.34 6443 
5230 91295893.96 22251526.11 6320 
5250 126110987.9 30264119.4 6422 
5270 192625952.9 37404115.55 6760 
5290 100105927.2 15154589.78 6776 
5310 112554818.5 19188449.54 6766 
5330 137688805.4 43401464.64 6792 
5350 129964635 27946459.07 6836 
5370 124254719.2 24969196.33 7038 
5390 119122329.1 19049527.1 7172 
5410 118130033.1 21569054.33 7258 
5430 87774105.15 16963244.62 7419 
5450 90441952.48 15010466.94 7320 
5470 101596630.1 14976614.59 7478 
5490 111714519 18740797.66 7632 
5510 161053755.2 45350407.7 7585 
5530 128318402.7 21577834.36 7775 
5550 116593167.3 23752872.65 7707 
5570 146633678.6 28322748.01 7942 
5590 144552497.1 25019001.36 8111 
5610 177079893.5 34314520.04 8116 
5630 145843407.2 27070703.85 8260 
5650 143618591.8 23167980.92 8263 
5670 186675850.7 43350757.07 8300 
5690 170091041.3 28663623.66 8502 
5710 154484757.9 30511832.15 8567 
5730 117878849.1 19643852.4 8489 
5750 176168752.7 30195922.72 8694 
5770 180423350.4 37203142.28 8877 
5790 171257187.9 29403465.83 8852 
5810 120896661.1 19399633.71 8959 
5830 109193529.2 17750114.71 8902 
5850 192582288.9 39108775.69 9097 
5870 138847259.8 30116492.62 9115 
5890 120453505.8 17723976.21 9185 
5910 139236495.7 21665108.21 9222 
5930 173705899.6 28338617.43 9296 
5950 136100765.6 18809930.78 9400 
5970 175811997.3 28047557.89 9494 
5990 145265817.6 29271619.47 9435 
6010 146194944.9 28219334.34 9518 
6030 115104224.8 15514557.56 9572 
6050 175586609.1 27119095.82 9715 
6070 124509684.5 18163873.74 9730 
6090 172937909.6 27688885.35 9887 
6110 164083866.6 37197091.45 9948 
6130 188314038.8 34060349.37 10181 
6150 149618010.7 21391697.59 10182 
6170 148383972.9 26130626.29 10082 
6190 230663753.2 45080701.78 10371 
6210 173012716.5 30048342.64 10247 
6230 126247715 18042567.62 10252 
6250 174648703.5 32389294.33 10422 
6270 187215543.2 29528558.04 10466 
6290 179059863.6 31036724.56 10561 
6310 186807733.4 35391870.16 10676 
6330 180567825.7 25812054.37 10653 
6350 128278643.4 23240224.71 10784 
6370 179342355.6 30194052.48 10830 
6390 126671583.3 19844259.56 11081 
6410 222769415 42397254.7 11033 
6430 214893935.5 32296778.36 11078 
6450 187794338.7 28846052.02 11122 
6470 169686175.1 27349400.11 11138 
6490 162556144.6 24236921.29 11024 
6510 137687744 27500901.02 11207 
6530 224217151 46873303.38 11089 
6550 175430109.9 25320311.94 11406 
6570 185758092.7 29027737.54 11411 
6590 215859363.3 38786844.16 11261 
6610 184134202.8 31904473.28 11303 
6630 175723006.1 27185569.36 11253 
6650 195068117.4 32788442.38 11363 
6670 145376123.5 20274997.77 11541 
6690 192502043.8 27612064.41 11371 
6710 218233963.2 35515539.36 11438 
6730 190634629.1 36000632.73 11556 
6750 223677890.3 43038622.44 11557 
6770 159900111.4 22190794.1 11484 
6790 174953110.8 23459831.84 11533 
6810 219877703.1 39260281.23 11788 
6830 225594927 40384825.03 11679 
6850 205540097.7 34490988.64 11957 
6870 216988241.6 30480241.66 11595 
6890 160099002.5 23100302.91 11817 
6910 236096984.7 35620006.52 11853 
6930 193647306.6 24643674.96 11755 
6950 227719371.4 38403500.24 11902 
6970 193347887.7 25609232.01 11744 
6990 182487655.7 31291579.2 11844 
7010 240409459 39394490.93 11819 
7030 172303289 26349982.96 12153 
7050 227246791.9 37749185.45 11886 
7070 230759910.3 39421167.88 11882 
7090 227605955.1 39261409.83 11967 
7110 206238912.6 36668426.63 12028 
7130 254518393.3 35294238.89 11848 
7150 212066107.9 29368051.06 12112 
7170 172231044.6 30978005.95 11975 
7190 277893080.2 41755539.31 12074 
7210 203879850.8 34764771.88 11851 
7230 211698493.1 36903775.26 11797 
7250 229959728.9 34251660 11930 
7270 239736292.9 32224644.77 11866 
7290 179077588.4 26836323.07 11821 
7310 172877875.6 28579202.9 11882 
7330 204923011.1 28619795.44 11615 
7350 157151266.3 21356329.89 12015 
7370 229155668.9 35685217.78 11849 
7390 179564876.4 22224089.55 11770 
7410 202187710.1 28204654.56 11975 
7430 190986004.2 30743688.1 11783 
7450 180675452.5 28330248.34 11795 
7470 202028340.2 25550172.58 11709 
7490 225017476.7 40796483.82 11551 
7510 212046820.9 34151008.42 11879 
7530 200349020.2 24178380.49 11851 
7550 162029076.8 19223619.29 11917 
7570 175169796.5 28270713.67 11844 
7590 223562557.9 32745781.47 11731 
7610 221641904.2 35735248.43 11620 
7630 206107014.3 33121878.45 11690 
7650 244684692.3 40410459.66 11719 
7670 200921491.5 25905758.24 11760 
7690 244637975.7 48028915.47 11461 
7710 294349733.9 46753991.53 11576 
7730 232440770.6 39603599.87 11509 
7750 275026552.8 42808902.49 11456 
7770 250781025.5 38892051.21 11406 
7790 190106347.4 27454145.82 11534 
7810 286675345.5 42836227.51 11284 
7830 181634685.1 29050097.25 11437 
7850 198992633.7 26692462.78 11461 
7870 182558993.4 27136862.61 11524 
7890 233962701.6 37562944.84 11352 
7910 154288971.5 26951633.16 11317 
7930 161991287.7 22323847.46 11454 
7950 171783687.6 30440188.41 11175 
7970 229650446.8 36799694.13 11154 
7990 185816876.4 29697506.31 11298 
8010 203437576.9 34911943.53 11086 
8030 233949831.6 31092637.09 11142 
8050 280661822 35318238.02 10973 
8070 230129272.7 40319455.53 11063 
8090 263982493.4 36477344.37 11103 
8110 241140229.9 43415781.47 10970 
8130 236055318.1 30913414.25 10945 
8150 212958355 32114897.59 10787 
8170 224900067.4 31143644.04 11040 
8190 224562574.4 37048507.55 10847 
8210 220004860.4 35284277.36 10700 
8230 226867618.5 37214209.39 10613 
8250 275172477.4 35926778.37 10651 
8270 189778023.6 27976250.16 10561 
8290 265629219.7 40150117 10562 
8310 240382087.1 32625087.61 10461 
8330 232530737.5 31481555.09 10457 
8350 208748171.2 28508729.81 10559 
8370 211188024.8 29540052.17 10600 
8390 253773559.1 36350921.74 10468 
8410 245932919.6 35677223.68 10314 
8430 273952348.7 37785918.11 10263 
8450 308700188.8 42051151.94 10269 
8470 265375369.5 40195780.6 10409 
8490 183360290.5 29964740.21 10262 
8510 256956681.7 39045303.94 10142 
8530 259962288.1 43150254.01 10006 
8550 317136854.8 53002499.64 10082 
8570 217993522.2 30756960.84 9902 
8590 321308431.7 46032011.14 10052 
8610 198510768 28562178.4 9828 
8630 276072316.1 36628095.44 10101 
8650 302647111.2 40074395.96 9833 
8670 207752432.2 25119610.52 9950 
8690 315546914.3 50060573.92 9803 
8710 257421432.4 39678705.25 9817 
8730 280349341.6 37228070.78 9655 
8750 196283376.2 31205828.75 9473 
8770 285475948.9 48856131.29 9620 
8790 243407667 33823827.51 9577 
8810 252475150.3 32715155.24 9574 
8830 286079761.3 36952478.26 9525 
8850 290153298.4 40790987.33 9400 
8870 278595593.3 42784116.49 9508 
8890 289933857.8 45128330.06 9368 
8910 264413942.7 34760935.84 9395 
8930 218166158.8 28339476.89 9237 
8950 249940115.9 47953565.52 9264 
8970 328223063.2 48734621.98 9217 
8990 226244353.7 29779259.38 9164 
9010 279872624.7 34408724.23 9184 
9030 243826332.2 34554831.79 8952 
9050 294673802.4 42111105.2 9007 
9070 327041979.1 46093392.79 8981 
9090 173010874.1 22752124.19 9089 
9110 295409569.3 38695071.61 8999 
9130 262984351.8 28762921.96 8911 
9150 365655201.1 59964254.75 8868 
9170 270235056.8 42310957.89 8807 
9190 350502641.8 55919395.08 8771 
9210 293692320.2 43294476.28 8585 
9230 274703546.9 29133302.69 8650 
9250 291433416.5 46632913.05 8671 
9270 367170231.3 55261911.68 8486 
9290 277529582 33469414.62 8488 
9310 290846102.3 40576243.4 8510 
9330 319357144.1 39392754.45 8272 
9350 315140031.1 42127025.92 8305 
9370 271650052.5 33866088.91 8161 
9390 292924325.9 33239645.57 8042 
9410 303165044.6 35491179.27 8278 
9430 403530222.7 61100786.88 8244 
9450 343711005.3 49667636.58 8161 
9470 275536528.5 35308918.41 8240 
9490 303641981.7 38658085.62 8035 
9510 299213707.9 38439338.93 8091 
9530 457163322.3 67317727.69 7957 
9550 261357215.1 41017391.61 8138 
9570 338498912.4 45178060.87 7919 
9590 339685410.1 45040843.32 7896 
9610 343609811.2 44585594.73 7819 
9630 333238936.1 50379909.52 7842 
9650 390724524.7 58788399.55 7586 
9670 330737035 45884384.62 7754 
9690 381529712.7 54695379.07 7630 
9710 405065847.1 46491526.3 7526 
9730 392885028.4 58194668.48 7622 
9750 290733149.1 35019028.77 7371 
9770 357300107 46446392.01 7663 
9790 339390726.4 49411027.82 7470 
9810 298760660.2 32602369.95 7463 
9830 357529537.9 49952803.5 7254 
9850 399200627.3 52266984.9 7306 
9870 394581241.6 50758608.89 7384 
9890 366206948.2 55221741.75 7340 
9910 368076057.5 47117867.19 7208 
9930 500757357.6 53021801.3 7205 
9950 447949977.3 58055579.84 7063 
9970 369028356.3 41585354.43 7109 
9990 421724812.3 56194591.51 7142 
10010 327394016.4 37448664.05 7055 
10030 372866384.7 38543669.62 7003 
10050 419444296.7 45860765.18 6926 
10070 345309108.7 38875630.9 6881 
10090 466076100 54550084.73 7099 
10110 425084754.5 43276252.79 7004 
10130 334399993.9 41448855.71 6652 
10150 395892273.3 47758851.69 6827 
10170 467541640.1 53092087.29 6609 
10190 397441281.2 45780072.26 6691 
10210 495789950.3 56664533.28 6651 
10230 399999906.4 50933764.23 6678 
10250 318862527.3 34963948.43 6619 
10270 470517733.8 51019540.87 6793 
10290 415225093.3 53584824.03 6551 
10310 415242609.9 44898097.89 6582 
10330 455004578 54937414.76 6399 
10350 479502455.6 58637787.89 6417 
10370 309814783.1 31115050.84 6489 
10390 432609839.6 49559517.99 6351 
10410 393145121.6 39845011.78 6374 
10430 409418152.2 48987139.25 6450 
10450 387088103.6 41490854.68 6238 
10470 489727751.7 57619252.08 6343 
10490 480737090.4 60550355.53 6252 
10510 442199789.6 41749586.94 6248 
10530 412614631.5 42377626.39 6127 
10550 450818129.5 46201041.38 6158 
10570 464373076 56465844.99 6152 
10590 461631714.9 54685364.38 6162 
10610 407732789.3 44886417.89 6039 
10630 515511425.6 52291389.46 6103 
10650 410789747.4 43708012.61 6101 
10670 419984714.6 41202160.2 5968 
10690 378281833.4 37858985.96 6129 
10710 516565950.8 52881745.07 6045 
10730 527232203.7 60927620.99 5920 
10750 481146124.9 55135468.17 5896 
10770 523523826.2 58514269.77 5777 
10790 465294778.7 51439980.84 5834 
10810 379424855.5 38594234.1 5818 
10830 461798044.9 47512097.63 5650 
10850 536677265.1 62189995.98 5707 
10870 415560941 39787606.21 5732 
10890 470705930.9 44092916.76 5746 
10910 582768110.3 59675087.79 5670 
10930 490127861.8 56951791.34 5623 
10950 514339114.9 50382239.71 5499 
10970 479710634.8 51560773.34 5757 
10990 374266120.1 37031591 5529 
11010 466691475.2 45202882.33 5605 
11030 564927727.8 54355387.97 5526 
11050 566945738.8 57464173.45 5449 
11070 533463034.4 53658432.17 5521 
11090 528642766 49719982.48 5358 
11110 429636171.9 43259574.08 5413 
11130 470174633.6 50648631.84 5450 
11150 574696915.4 64452471.76 5435 
11170 462050407.3 47372620.61 5396 
11190 502548002.1 54708026.04 5265 
11210 521263400.9 48899693.87 5295 
11230 522004938.1 65985821.91 5250 
11250 516583253.2 59568002.72 5165 
11270 468078032.3 43841900.01 5226 
11290 455698021.6 41420282.77 5158 
11310 443645977.4 49559399.44 5127 
11330 444328201.7 41036648.7 5048 
11350 507464514.4 49406002.79 5068 
11370 540562094.8 53773459.35 5113 
11390 473729193.2 43659946.56 5035 
11410 501086410.5 54059793.67 5121 
11430 514296073.6 48845379.84 4915 
11450 389774601.6 38204176.49 4884 
11470 557193184.1 63900053.97 4895 
11490 618094275.5 62950659.08 4971 
11510 567951317.8 57493202.53 5040 
11530 566157901.9 66046705.42 4914 
11550 485760712 48340911.2 4996 
11570 519054264.9 59377241.3 4950 
11590 549398467.7 54733112.58 4812 
11610 450243105.2 48976144.79 4779 
11630 556093001 51609306.07 4705 
11650 461431591.7 39228736.3 4721 
11670 509765673.5 51030915.94 4711 
11690 509394088.5 52450466.76 4769 
11710 535232649.5 66194504.02 4646 
11730 437355968.3 41446704 4657 
11750 537978769 55163895.86 4592 
11770 606752463.8 59921407.07 4670 
11790 539370678 72113551.61 4508 
11810 593953422.1 56119450.11 4602 
11830 525140773.7 41004871.5 4496 
11850 519549107.6 59698053.63 4638 
11870 513028786 47284342.5 4529 
11890 613520494.1 61780904.55 4510 
11910 499540892.9 43505161.71 4466 
11930 529323141.5 52301206.09 4504 
11950 561368361.3 50409336.24 4402 
11970 468870016.3 43490873.18 4474 
11990 531570022.2 47697657.68 4346 
12010 540559072.3 64787059.79 4454 
12030 571755998.6 54162241.7 4339 
12050 623965852.6 59344955.95 4400 
12070 562069458.8 50378445.19 4355 
12090 522825041.3 47380680.01 4322 
12110 584470516.6 52576985.3 4369 
12130 486383419.3 46485212.58 4179 
12150 540186748 49185118.56 4139 
12170 525578212.1 47053753.41 4114 
12190 531239930.7 46986905.75 4418 
12210 568463022.8 56137166.31 4167 
12230 479006164.5 45215608.46 4123 
12250 603083995.4 58470622.6 4274 
12270 455172786.3 45846373.28 4160 
12290 517822827.5 44264111.04 4117 
12310 554109098.2 53830734.5 4086 
12330 454173472 47627668.33 4107 
12350 594432909.7 69765337.24 4014 
12370 536789789.2 51965331.77 4035 
12390 489955037.7 42275741.54 4028 
12410 523245751.6 45195902.64 4029 
12430 539785724.9 47830170.15 3943 
12450 410432915 34751813.4 3946 
12470 597438912.5 54778052.92 3966 
12490 462115152.4 43421069.7 3876 
12510 459028857.3 52632472.34 3786 
12530 501815369.1 45889451.11 3874 
12550 505176981.2 44383779.35 3768 
12570 609936808 67842283.63 3926 
12590 473593007.9 42976870.22 3810 
12610 553841411.5 51451555.26 3744 
12630 514213736.7 47266952.55 3901 
12650 456008733.4 43715957.23 3792 
12670 475147772.3 45431771.89 3812 
12690 517219480.3 55996270.13 3817 
12710 556405152.1 55970086.99 3669 
12730 544309422.9 47657549.39 3679 
12750 575014388.4 58438283.46 3829 
12770 547664079.3 58536046.34 3640 
12790 553331382.2 54178187.77 3684 
12810 471908640.3 44116135.92 3706 
12830 480741489.7 43942272.03 3533 
12850 514042078.7 48898286.23 3493 
12870 495118018.2 46206110.21 3616 
12890 500119067.2 48775239.87 3569 
12910 600858091.2 58256867.11 3536 
12930 452615686.6 42232953.6 3569 
12950 484305235.5 47120372.08 3560 
12970 549250117.5 55137061.55 3515 
12990 506317276.9 54405444.17 3490 
13010 400423358.9 32357817.71 3514 
13030 469710919.2 49265146.97 3439 
13050 479462667.1 63591577.06 3398 
13070 545010775.2 49272490.2 3470 
13090 463378082.5 39210834.11 3442 
13110 561225594.4 48704939.49 3347 
13130 549649323.9 52096817.24 3457 
13150 590416870.7 56669620.82 3385 
13170 461293085.5 40165074.63 3390 
13190 505341101.1 46895049.68 3284 
13210 416465664.5 44480538.85 3316 
13230 440264046.7 42007884.68 3345 
13250 481267749.2 59445915.64 3380 
13270 503178403.3 48290057.12 3290 
13290 430163111.1 38667949.55 3358 
13310 415715934.3 37450970.18 3249 
13330 563366054.9 53104243.66 3223 
13350 447116406.5 43460175.94 3165 
13370 484951407.7 45620900.04 3216 
13390 460299339.3 42676461.7 3196 
13410 569425093.9 56181387.75 3193 
13430 477413018 46202285.22 3215 
13450 528984680.9 55488517.39 3206 
13470 436825937 40636675.55 3192 
13490 401555429.5 38266905.84 3139 
13510 468121115 40422603.43 3037 
13530 614491603.6 58282980.21 3124 
13550 518746237.5 65074060.97 3058 
13570 506261753.4 45104924.5 2999 
13590 455211440.7 36735001.07 3178 
13610 469750769.8 71725069.14 2980 
13630 395383847 37622004.47 3024 
13650 434246548.4 39250027.07 3103 
13670 478301787.6 64712831.83 3036 
13690 503600018.8 46502091.98 2986 
13710 462985197.8 46232164.97 2941 
13730 401923594.6 35420886.79 3005 
13750 503803616.6 52395464.63 2989 
13770 471086482.3 41871909.69 3022 
13790 410535976.5 38639234.27 2916 
13810 498930820.5 79943371.71 2962 
13830 530588596.9 48396635.04 2860 
13850 405947654.5 45632065.55 2883 
13870 416463552.2 37791559.49 2897 
13890 444672035.2 41430114.35 2935 
13910 427368096.9 59987708.17 2882 
13930 416735084.7 38716941.91 2843 
13950 398678009.4 36407214.32 2889 
13970 426890128.5 37231373.53 2898 
13990 397033897.5 36807087.08 2731 
14010 421110923.2 38278555.33 2798 
14030 397960762.3 38845850.89 2782 
14050 379681242.6 42162428.13 2695 
14070 414959460.1 41410726.77 2783 
14090 435001544.8 42398862.86 2745 
14110 528535909 81679988.1 2853 
14130 394306932.2 40111776.85 2734 
14150 382453087.8 35313361.32 2659 
14170 423617201.5 43038283.86 2751 
14190 462685973 45629636.6 2730 
14210 417450566.4 58266976.87 2710 
14230 394394956.8 38384044.06 2636 
14250 421653429.3 38460760.84 2630 
14270 437490960.7 40720035.58 2647 
14290 430493414.9 42286373.06 2563 
14310 380244552.6 35664430.28 2671 
14330 334115636.3 33907126.62 2573 
14350 397517823.6 36218945.62 2605 
14370 493747055.3 51764134.06 2537 
14390 440998915.4 57774119.63 2641 
14410 384821873.7 38243519.66 2620 
14430 457496417.7 46425049.15 2665 
14450 407261357.8 39958248.99 2536 
14470 468512100.9 50660563.79 2625 
14490 399512931 37375644.27 2498 
14510 356714498.2 33383530.4 2530 
14530 442546215.5 40369621.9 2539 
14550 442354015.9 38943095.38 2462 
14570 444974358.4 60297903.37 2520 
14590 411391191.6 39611618.38 2532 
14610 509930491.6 75719302.06 2498 
14630 441963291.6 60070525 2361 
14650 358626423.4 35039010.78 2495 
14670 459625726 51665884.21 2456 
14690 411283930.4 38368629.17 2392 
14710 341906486.6 31023637.48 2365 
14730 412386818.3 57324574.26 2425 
14750 371371256.2 40643691.16 2345 
14770 378281064.2 38560125.77 2372 
14790 339264734.1 36877734.84 2242 
14810 392918280 37485550.09 2444 
14830 423513970 60718116.97 2387 
14850 373397954.5 39753386.41 2381 
14870 345153342.7 30498959.8 2264 
14890 428025956.5 71303813.85 2285 
14910 392461420.7 37293381.76 2305 
14930 348143394.9 33221451.16 2254 
14950 440470827.7 70039759.84 2238 
14970 334655176.4 33234313.77 2233 
14990 428119246.8 40844898.58 2272 
15010 416457831.1 62242898.43 2247 
15030 377641961.7 38289926.62 2261 
15050 436792994.5 60468862.66 2316 
15070 282604279.5 28211345.37 2247 
15090 371481093.9 45238152.12 2143 
15110 361270583.2 34835814.46 2283 
15130 429946795.6 49480361.9 2286 
15150 397496557.9 39916349.82 2299 
15170 341110718.6 32690306.84 2156 
15190 298848984.6 31693859.44 2149 
15210 349147959.5 34872294.47 2137 
15230 390865174.1 42330245.23 2167 
15250 338960020.5 32362313.52 2189 
15270 325709685.4 34700426.88 2110 
15290 340943253.4 31684644.8 2105 
15310 383906912.3 38365940.14 2231 
15330 406485660.9 40221903.17 2143 
15350 463650191.1 84817430.6 2201 
15370 310312277.3 32502452.61 2060 
15390 295612318.5 29501585.48 2068 
15410 409938556.7 35989822.47 2129 
15430 418161639.3 69660098.28 2003 
15450 382077344.1 36238225.58 2137 
15470 334549509.6 37703919.07 2046 
15490 351584036.4 33563965.57 2059 
15510 392440931.1 38937215.48 2170 
15530 359273384.8 36170095.62 2116 
15550 383202009.2 36838154.9 2085 
15570 285819586.7 28356337.25 2065 
15590 337409875.1 33187473.65 2071 
15610 346883715.3 33219088.37 1976 
15630 368035627.6 38091906.13 1975 
15650 318653363.7 56100560.84 1962 
15670 352723164.8 35178324.69 2023 
15690 245604508.1 25866403.73 1940 
15710 308604098 28121718.86 2000 
15730 329461301.5 34529827.21 1981 
15750 434758787.2 52661727.02 1958 
15770 368295016.1 34033395.8 1974 
15790 382032700.3 58368608.4 1953 
15810 264384952.6 30753532.86 1876 
15830 314425749 30613944.49 1964 
15850 250751097.5 25311763.55 1916 
15870 272354578.9 28569227 1924 
15890 396768633.3 51493352.48 1848 
15910 316003663.9 30718924.67 1870 
15930 326847479.2 57038831.14 1918 
15950 308780912.9 30495307.38 1923 
15970 260520018.2 26160527.93 1927 
15990 377325538.1 39841909.4 1919 
16010 314926623 31840496.58 1842 
16030 284376687.2 31405465.11 1888 
16050 412363371.5 62446565.46 1967 
16070 254122020.8 27866663.43 1878 
16090 306047338.6 33973979.74 1821 
16110 353366058.1 37306991.23 1829 
16130 405032628.8 51498638.43 1812 
16150 331473916.9 37952671.1 1843 
16170 248894477 26935101.89 1836 
16190 294456876.6 31069597.01 1815 
16210 278590993.6 27400563.23 1815 
16230 294750597 31491190.72 1812 
16250 294683682.5 29852925.46 1865 
16270 330806378.1 35072958.76 1838 
16290 245798736.1 29294620.61 1706 
16310 344939574.4 37378327 1735 
16330 424074394.8 71162377.45 1778 
16350 349622658.4 43309614.21 1799 
16370 285500012.7 32938243.32 1777 
16390 381138799.1 62980478.97 1804 
16410 318411001.6 32631151.09 1771 
16430 296162953 35460605.74 1750 
16450 349794513.1 36259720.95 1718 
16470 311943853.2 54214633.03 1746 
16490 255707174 32452863.49 1758 
16510 360150538.6 39535410.46 1769 
16530 263226543.1 26803750.26 1696 
16550 269288562.8 27904740.75 1646 
16570 276426840.6 26763932.99 1740 
16590 309502974.6 46230122.4 1789 
16610 273263816.6 31527833.25 1609 
16630 300456096.2 29910618.73 1705 
16650 269770909.7 38677292.26 1684 
16670 272273800.3 30222394.38 1656 
16690 348476548.7 43239915.78 1708 
16710 322586921.5 36677876.29 1657 
16730 306938251.7 47983032.55 1629 
16750 265286632.4 26969538.86 1666 
16770 249297519.8 28732916.63 1698 
16790 287368277.5 32507965.83 1669 
16810 249975191.8 29647203.95 1537 
16830 337048144.4 40725251.36 1716 
16850 240045627.4 28458626.12 1682 
16870 344465696.9 49427778.64 1680 
16890 316610852.5 64601356.03 1649 
16910 348760468 41640870.88 1565 
16930 253913410.2 31089225.69 1704 
16950 351620878.8 54949908.66 1669 
16970 279816899.6 34968460.64 1572 
16990 274436307.8 47376603.6 1601 
17010 284194140.2 28927161.41 1617 
17030 385688075.3 84472779.15 1573 
17050 271767563 30965509.93 1579 
17070 263039867.6 30657158.73 1555 
17090 237790941.9 26260510.59 1619 
17110 374420683.5 69418890.74 1567 
17130 228016709.1 28223424.88 1514 
17150 309047508.5 40250436.79 1547 
17170 256635163.5 33428879.08 1490 
17190 354000976.7 58407672.25 1554 
17210 236366993.3 29520781.28 1558 
17230 364731654 79811211.99 1606 
17250 260504378.1 32328554.91 1565 
17270 271309364.5 28058872.63 1584 
17290 254660165.8 28473799.8 1482 
17310 219886206.9 24288701.5 1535 
17330 227909830.9 26661658.31 1527 
17350 301103283 47306834.38 1524 
17370 282848810.6 33837657.87 1476 
17390 252320080.8 34441425.65 1469 
17410 190432368.5 22023512.53 1547 
17430 240388085.8 30507639.28 1469 
17450 234212758.5 26626499.45 1495 
17470 342320392.4 82905690.25 1500 
17490 270358748.2 31095509.34 1541 
17510 251561463.3 26491235.1 1528 
17530 221780846.1 24690630.09 1463 
17550 238202767.3 25201283.33 1499 
17570 273504906.2 27808916.61 1451 
17590 219929040.7 26932943.27 1466 
17610 229991776.9 24191179.41 1572 
17630 224168387.5 26223274.21 1537 
17650 264768420.3 31515389.74 1415 
17670 220537754.9 25330377.35 1488 
17690 386346326.1 89745106.74 1458 
17710 185939936.3 21187601.92 1440 
17730 282539174.9 37401980.27 1494 
17750 225590913.2 25498898.45 1416 
17770 220466125.5 25105977.24 1412 
17790 244459172.7 24931069.69 1517 
17810 240002771.7 32130096.41 1396 
17830 259939866.7 29245030.6 1407 
17850 202829203 23983406.93 1365 
17870 274598717.4 33008413.62 1418 
17890 255537530.1 30344387.27 1408 
17910 250898525.6 31820742.95 1410 
17930 203039962.3 23033904.3 1437 
17950 204824816.4 25076396.61 1372 
17970 252712364.6 30408312.23 1426 
17990 246192839.2 27951519.08 1359 
18010 191301000.3 23204027.55 1392 
18030 226087582.1 23344757.95 1393 
18050 292844046 34584201.34 1400 
18070 246846874.3 26175750.4 1460 
18090 282157355.8 31481716.25 1393 
18110 201449925.8 23676448.43 1323 
18130 227965067.8 26733972.77 1367 
18150 223542562.3 25375715.8 1415 
18170 260402397 34557992.29 1342 
18190 180766419.5 19534889.01 1417 
18210 258453861.9 33864613.38 1328 
18230 160786280.3 19488227.71 1315 
18250 247069202 25159783.45 1333 
18270 295962498.2 66390360.11 1346 
18290 240239370.8 29297987.68 1318 
18310 237467466.8 28363889.91 1324 
18330 216710264.9 22689197.8 1306 
18350 229601431 26705910.99 1417 
18370 249857199.6 30340853.82 1323 
18390 192880959.1 24314229.39 1351 
18410 216020703.6 22481848.97 1325 
18430 203828832.1 22001582.03 1334 
18450 212996906.2 27762121.29 1286 
18470 295119965.1 51993889.31 1321 
18490 199513150.6 27902345.36 1227 
18510 241220038.1 27099666.42 1332 
18530 301122261.4 46080787.7 1363 
18550 193999670.1 27631225.18 1330 
18570 197053330.8 24378391.1 1271 
18590 260556735 32466473.98 1323 
18610 151295963.1 19054698.11 1286 
18630 232117761.2 26681603.86 1290 
18650 267945871.9 49289179.99 1312 
18670 238786244.3 26611115.81 1254 
18690 276632487.6 59846126.42 1242 
18710 217719860 25726861.09 1274 
18730 287323778.3 65037705.85 1268 
18750 211207930.5 26031980.06 1269 
18770 240201648.4 33476307.82 1240 
18790 282619955.7 46031641.02 1278 
18810 206751332.4 23950776.95 1264 
18830 197847528.2 22461320.27 1296 
18850 252294470.7 30017763.9 1293 
18870 259740600.6 36557825.24 1271 
18890 208636842.8 24156846.34 1246 
18910 214958764.1 25711597.11 1247 
18930 190790095 23068603.46 1169 
18950 274005918.3 31442905.31 1283 
18970 202919793.6 23065184.13 1232 
18990 180412444.6 21473203.08 1227 
19010 219187638 32927215.52 1202 
19030 187923114.6 23287379.75 1193 
19050 200423085.9 23138588.58 1304 
19070 224052976.8 29795476.53 1209 
19090 177245628 20483796.41 1254 
19110 163112784.8 19691258.8 1177 
19130 230659175.9 37270909.68 1197 
19150 198755922.7 24000231.76 1169 
19170 193655459.4 21589915.79 1245 
19190 194306045.6 31339590.21 1230 
19210 278749538.3 73352931.38 1224 
19230 226407267.1 33540532.12 1210 
19250 163815836 20396270.96 1183 
19270 155052600 18770128.62 1197 
19290 201325243 25155163.31 1185 
19310 158896026.2 19107806.71 1155 
19330 238809840.8 48611300.71 1179 
19350 207566958.1 24438472.7 1124 
19370 201845382 24268485.84 1158 
19390 160814070.5 20908987.71 1180 
19410 182317881.6 22186470.8 1143 
19430 154646686.5 20669817.78 1103 
19450 159159331.3 21956894.96 1200 
19470 306551704.4 70400307.76 1192 
19490 209713689.9 23849388.41 1080 
19510 137708634.2 17886113.5 1093 
19530 199366424.7 31832266.18 1122 
19550 199058688.8 24319041.49 1088 
19570 140612486.8 18627973.3 1129 
19590 189527394.5 25614433.76 1145 
19610 178075759.2 19622540.59 1114 
19630 156949067.3 24146760.16 1088 
19650 203789976.3 28730748.64 1128 
19670 197926613.1 28836238.51 1163 
19690 181010218.3 21431170.86 1129 
19710 182415586.9 21846379.44 1146 
19730 181668830.1 20912746.89 1085 
19750 177822906 25078889.28 1095 
19770 202453048.7 23629942.48 1165 
19790 200236172.3 27893651.7 1117 
19810 174922618.1 20989706.6 1106 
19830 150227906.9 20305820.38 1105 
19850 207945822.7 28430004.15 1065 
19870 192854588.8 22611326.47 1133 
19890 154025702.5 18074258.88 1090 
19910 143751240.1 20664104.58 1026 
19930 187515025.8 30175524.67 1069 
19950 183503768 28676933.13 1069 
19970 154519300.9 20461198.32 1053 
19990 174415751 23214192.13 1031 
