# Format: McCode with text headers
# URL: http://www.mccode.org
# Creator: McStas 2.5 - Dec. 12, 2018
# Instrument: BIFROST_losses.instr
# Ncount: 174450495
# Trace: no
# Gravitation: no
# Seed: 1560250153
# Directory: BIFROST_losses_20190611_114821
# Nodes: 8
# Param: MCPL=1
# Param: CHOPPERS=0
# Param: sector=W
# Param: beamline=3
# Param: Lmin=0.2
# Param: Lmax=20
# Param: c_performance=1
# Param: t_performance=1
# Param: index=8
# Param: dist=0
# Param: cold=1
# Param: Yheight=0.03
# Param: delta=0
# Param: thres=0.003
# Param: filter=0
# Param: repeat=1
# Param: E_smear=0.1
# Param: pos_smear=0.01
# Param: dir_smear=0.01
# Param: WaveMin=0.1
# Param: WaveMax=99.5
# Param: pin_holeY=0.088
# Param: pin_holeX=0.03
# Param: E_0=4
# Param: L_0=0
# Param: chopPulseOpening=0.004
# Param: chopPulseFrequencyOrder=8
# Param: sampleSizeX=0.01
# Param: sampleSizeY=0.01
# Param: chopBWPos=78
# Param: DivSlit0_width=0.1
# Param: DivSlit1_width=0.1
# Param: DivSlit2_width=0.1
# Param: DivSlit3_width=0.1
# Param: BWopen=172.33
# Param: FOCopen1=37.79
# Param: FOCopen2=51.63
# Param: Npulse=1
# Param: PscOff=0.0306
# Param: discD=0.04
# Param: monigap_length=0.02
# Param: print=0
# Param: makeVirtualSource=0
# Param: printMValues=0
# Param: ROT=0
# Param: TX=0
# Param: TY=0
# Param: TZ=0
# Param: Center=0
# Date: Tue Jun 11 11:57:27 2019 (1560247047)
# type: array_1d(1000)
# Source: BIFROST_MCPL (BIFROST_losses.instr)
# component: ToFBeforeBWC
# position: 58.021 0 52.2631
# title: Time-of-flight monitor
# Ncount: 1395603960
# filename: ToFBeforeBWC.dat
# statistics: X0=80784.2; dX=49025.8;
# signal: Min=0; Max=1.73668e+09; Mean=2.09054e+08;
# values: 2.09054e+11 9.78338e+08 4.26562e+06
# xvar: t
# yvar: (I,I_err)
# xlabel: Time-of-flight [\gms]
# ylabel: Intensity
# xlimits: 0 452537
# variables: t I I_err N
226.2683369 0 0 0 
678.8050106 0 0 0 
1131.341684 0 0 0 
1583.878358 17221.29798 17221.29798 1 
2036.415032 1.327097121e-22 1.327097121e-22 1 
2488.951706 0.00480816346 0.002757379476 4 
2941.488379 4367.155062 4629.319275 4 
3394.025053 50780.70314 37233.81343 6 
3846.561727 435189.6846 311354.8521 27 
4299.098401 13914.43097 8700.648754 24 
4751.635074 318581.551 252176.1582 38 
5204.171748 1072004.804 756227.1084 57 
5656.708422 924241.3033 445212.2653 87 
6109.245096 5957877.894 4266462.799 89 
6561.781769 1056343.282 540908.0622 170 
7014.318443 17263358.48 7287917.726 224 
7466.855117 8847295.028 4654119.152 251 
7919.391791 22994758.15 7771097.701 361 
8371.928464 30166647.24 12598186.48 411 
8824.465138 43836539.48 11993304.36 511 
9277.001812 47557860.75 14779254.05 566 
9729.538486 49949305.31 15394658.03 646 
10182.07516 36968677.4 8764435.798 754 
10634.61183 42371605.91 12702304.43 864 
11087.14851 65715031.58 20724031.4 1003 
11539.68518 51037874.94 12406327.17 1146 
11992.22185 57239174.31 28144598.13 1263 
12444.75853 35613137.22 12189853.77 1549 
12897.2952 72378799.49 28968022.51 1830 
13349.83188 121725731.1 55437591.84 2168 
13802.36855 107005042.9 39651973.03 2635 
14254.90522 78410921.74 24575243.33 3201 
14707.4419 125495241.4 38148968.85 3934 
15159.97857 117904755.1 28817011.31 4992 
15612.51524 201173851.4 85225870.69 6304 
16065.05192 145359285.2 26105706.39 7590 
16517.58859 170979745.9 33483679.01 9232 
16970.12527 143607232.3 31566006.75 11044 
17422.66194 163282146.1 31626847.07 12820 
17875.19861 200748537.9 47310196.33 15228 
18327.73529 176922747.3 21600612.92 17620 
18780.27196 200313801.1 26264184.27 20322 
19232.80863 187591744.4 24183337.71 22805 
19685.34531 217187542.3 25155655.74 26158 
20137.88198 181665416.2 18243854.01 28599 
20590.41866 217355823.6 22702097.65 31507 
21042.95533 288445476 33354934.37 34320 
21495.492 269625001.5 35003558.21 36787 
21948.02868 303488034.4 32519786.27 39468 
22400.56535 270611836.1 30188296.99 42138 
22853.10202 341783134.3 42478685.49 44081 
23305.6387 377584051.6 51583331.68 46101 
23758.17537 362046807.7 42664342.92 47651 
24210.71205 380213227.2 44497244.18 49849 
24663.24872 393260772.2 43833392.1 50522 
25115.78539 450700628.3 50082600.84 52458 
25568.32207 472713085.7 50827974.15 52958 
26020.85874 373000308.3 37565709.15 54176 
26473.39541 514088994.8 58146262.35 54609 
26925.93209 453028509.1 47773004.49 55347 
27378.46876 363656569.2 35014213.9 55143 
27831.00544 522343084 47061078.58 56200 
28283.54211 355167658.8 30493983.16 56351 
28736.07878 512794073.2 54957798.71 55975 
29188.61546 527363028.2 55310804.47 56228 
29641.15213 499696624.3 45204720.45 55769 
30093.6888 503711438.4 52038491.06 55265 
30546.22548 501851267.3 44720954.29 54829 
30998.76215 540910619.6 50528094.31 53698 
31451.29883 574777829.3 62346438.6 53403 
31903.8355 533794959.9 52048625.19 52884 
32356.37217 470690263.6 44663346.39 52026 
32808.90885 622642547.6 66848133.07 51256 
33261.44552 506041658.6 45224951.63 49934 
33713.98219 481140352.2 42616641.85 49826 
34166.51887 610273002.6 65930858.63 48795 
34619.05554 505788322.9 47206905.86 47573 
35071.59222 544099990.9 50337143.49 46230 
35524.12889 595493764 60943726.66 45426 
35976.66556 628866471.3 60111904.59 44540 
36429.20224 588524346 50391641.85 43468 
36881.73891 577715989.6 51447796.63 42588 
37334.27558 616913939.2 57299816.45 41842 
37786.81226 563189747.9 53493267.36 40427 
38239.34893 611193980.3 58225725.02 39269 
38691.88561 770989426.9 66848875.61 38527 
39144.42228 623302333.1 52158183 37121 
39596.95895 665298792.9 52937241.18 36706 
40049.49563 718852783.2 61682669.86 35255 
40502.0323 908123079.7 87927251.03 34828 
40954.56897 907963830.9 80553540.81 33705 
41407.10565 840721625.7 69233396.88 32540 
41859.64232 756569022 61758517.82 31557 
42312.179 861502034.2 70631871.45 30904 
42764.71567 949808864.7 77957949.54 30470 
43217.25234 988612404 84183724.04 29527 
43669.78902 918003878 76005047.77 28867 
44122.32569 876509702.6 65820818.73 28467 
44574.86236 1193421700 88222727.01 28136 
45027.39904 1019159755 76439820.48 27271 
45479.93571 1183245211 89937031 27129 
45932.47239 1122168460 82086208 26463 
46385.00906 1209033958 85042762.54 25606 
46837.54573 1194986875 92110992.25 25394 
47290.08241 1217748187 79262554.86 24952 
47742.61908 1222918492 81942411.12 24400 
48195.15575 1210159693 78206427.15 23850 
48647.69243 1317043616 83716634.26 23040 
49100.2291 1425634072 87705625.29 22662 
49552.76578 1427984996 82681104.27 22209 
50005.30245 1415212217 84547587.49 22078 
50457.83912 1577083305 109446229.8 21453 
50910.3758 1695993122 99375368.67 21119 
51362.91247 1575140376 92901363.86 20688 
51815.44914 1490949147 96847667.26 20319 
52267.98582 1624689830 101679562.3 19626 
52720.52249 1736675607 96022149.47 19416 
53173.05917 1625105784 94101379.59 19065 
53625.59584 1470141580 84275058.49 18661 
54078.13251 1505416702 79651271.23 18182 
54530.66919 1551051916 90786736.48 17877 
54983.20586 1631908291 88364402.3 17814 
55435.74253 1590077433 89164966.28 17257 
55888.27921 1572203408 84522546.9 16601 
56340.81588 1603031124 95891726.73 16317 
56793.35256 1619547772 86109102.86 16196 
57245.88923 1395934980 81005569.1 15879 
57698.4259 1482614964 89215755.63 15250 
58150.96258 1514431813 80874146.58 15425 
58603.49925 1703275958 113713258.5 14848 
59056.03593 1398906285 74879223.03 14324 
59508.5726 1393356327 73876481.19 14247 
59961.10927 1407283974 80695611.34 13865 
60413.64595 1631964767 100166583.2 13685 
60866.18262 1442280010 74703025.59 13549 
61318.71929 1416876434 97130051.18 13168 
61771.25597 1544333345 106373906.4 12735 
62223.79264 1442554960 100641297.3 12631 
62676.32932 1311709591 75587736.03 12205 
63128.86599 1202523439 69633362.29 11982 
63581.40266 1281218435 70597720.07 11925 
64033.93934 1361303711 99106739.65 11556 
64486.47601 1402271534 110846983.1 11441 
64939.01268 1304530060 103220446 11257 
65391.54936 1222523553 68061953.05 10966 
65844.08603 1261477424 79880938.96 10905 
66296.62271 1352973913 77878202.29 10541 
66749.15938 1333780119 102238280.8 10420 
67201.69605 1111958123 67562124.96 10204 
67654.23273 1182749402 76717642.48 9946 
68106.7694 1094522943 61499957.77 9750 
68559.30607 1117142844 64128746.29 9781 
69011.84275 1296632001 94404737.96 9363 
69464.37942 1160052970 63927619.13 9332 
69916.9161 983762868.9 55732680.51 8953 
70369.45277 1058604197 62259480.03 8728 
70821.98944 950360065.9 54510822.91 8763 
71274.52612 1089190715 64996228.13 8794 
71727.06279 1082034076 66196953.18 8383 
72179.59946 1096613962 85874332.27 8297 
72632.13614 1054617142 61152511.26 8191 
73084.67281 989048439.2 66408224.28 8011 
73537.20949 958197278.4 54296914.45 7884 
73989.74616 959071898.9 72893759.5 7702 
74442.28283 941753882.5 57959218.43 7390 
74894.81951 909552344.9 61883197.75 7523 
75347.35618 1029337781 65985266.77 7469 
75799.89285 981125685.9 64468934.2 7193 
76252.42953 936648193.1 58709699.57 7008 
76704.9662 901876200.6 58566248.01 7049 
77157.50288 989916270.3 64659069.46 6859 
77610.03955 805239535.2 56253381.81 6652 
78062.57622 947829493.2 73174567.24 6627 
78515.1129 849552122.6 53309715.45 6707 
78967.64957 973075108.1 60567085.67 6548 
79420.18624 867272076.2 57444310.39 6492 
79872.72292 880233630.8 61278116.05 6358 
80325.25959 793083060.8 46529041.42 6351 
80777.79627 920044359.6 80844731.57 6225 
81230.33294 738996609.9 46882989.02 6181 
81682.86961 820435781.5 55265849.87 5992 
82135.40629 786353859 54866387.86 6043 
82587.94296 764939830.8 50656840.02 6044 
83040.47963 727563488 43949817.31 5717 
83493.01631 723752098.3 46470121.13 5842 
83945.55298 729950374.4 74558769.81 5768 
84398.08966 584746327.8 40135985.9 5647 
84850.62633 852118538.9 57427965.34 5654 
85303.163 803098055.3 94060780.22 5616 
85755.69968 778185202.4 75477760.32 5640 
86208.23635 749176168.9 59226655.85 5542 
86660.77302 794002345.3 61952057.05 5393 
87113.3097 677863339.2 43802444.09 5444 
87565.84637 724419390.2 53189774.89 5298 
88018.38305 705070056.9 62551815.64 5182 
88470.91972 754284007 79160381.9 5049 
88923.45639 651981477.6 47279569.92 5055 
89375.99307 661282609.8 65611700.31 4971 
89828.52974 618326169.4 42904619.44 4946 
90281.06641 655720462.6 53663759.11 4787 
90733.60309 605774482.1 43719823.67 4824 
91186.13976 587585460.4 44550586.05 4820 
91638.67644 620667588.8 49344403.97 4839 
92091.21311 571344137 40226533.6 4469 
92543.74978 526877824.9 38059297.03 4496 
92996.28646 573595364.4 49730685.16 4536 
93448.82313 533621040.6 36883758.42 4373 
93901.3598 592636242 40053588.46 4268 
94353.89648 597502460.3 47361609.16 4338 
94806.43315 564229167 40719270.2 4248 
95258.96983 470301371 35842861.78 4044 
95711.5065 570533068 45252637.16 4072 
96164.04317 495302142.2 37415732.91 4013 
96616.57985 551698719.1 40167644.8 3967 
97069.11652 473887140.5 36412221.37 3914 
97521.65319 513301228.8 39699196.26 3831 
97974.18987 450162094.5 36843996.39 3900 
98426.72654 462179154.4 33909481.23 3741 
98879.26322 476916291.1 53237578.34 3563 
99331.79989 558484342 54578166.55 3655 
99784.33656 478673658.3 34823506.31 3657 
100236.8732 459858037.2 33087702.7 3628 
100689.4099 440711481.2 33236522.13 3440 
101141.9466 453524124.2 33096278.68 3475 
101594.4833 507974943.3 37920049.18 3412 
102047.0199 481633283.7 40593515.87 3338 
102499.5566 491375188.4 37702223.54 3296 
102952.0933 466378987.8 38699960.48 3276 
103404.63 379292365.2 32190107.66 3128 
103857.1666 414810154.4 33113244.84 3175 
104309.7033 453603847.6 36481277.68 3068 
104762.24 449855300.4 37513303.48 3116 
105214.7766 442531814 34909642.49 3078 
105667.3133 465403276.3 36798263.73 3044 
106119.85 405564426.1 32496203.4 2972 
106572.3867 488896269 37090565.08 2976 
107024.9233 393541633.2 33317823.4 2808 
107477.46 365421658 31650731.82 2789 
107929.9967 440974918.8 35821954.48 2784 
108382.5334 409326423.2 30574500.25 2760 
108835.07 308990589.9 26107934.93 2670 
109287.6067 424602207.5 33951679.21 2669 
109740.1434 418957144.6 35646814.75 2604 
110192.6801 410802584.7 36820832.43 2562 
110645.2167 393873952.9 33207860.17 2587 
111097.7534 370891488.3 32682131.86 2486 
111550.2901 372754176.4 31684619.13 2515 
112002.8268 376430824.6 31422406.04 2496 
112455.3634 356648285 32980580.01 2393 
112907.9001 409454964.1 35219284.17 2450 
113360.4368 369011902 33444339.61 2444 
113812.9734 348009564.8 31067430.4 2385 
114265.5101 322057196.1 31057971.7 2266 
114718.0468 340509170.8 29903842.54 2316 
115170.5835 321227825.4 32087629.85 2160 
115623.1201 366190779.2 32579128.81 2231 
116075.6568 272907063 24139413.06 2094 
116528.1935 381364379.2 34300704.35 2170 
116980.7302 345580233.1 32186550.34 2202 
117433.2668 308046311.3 26357559.07 2191 
117885.8035 293944294.5 29573303.46 2130 
118338.3402 325591180.8 28992502.21 2067 
118790.8769 316167474.2 28462678.27 2024 
119243.4135 318366783.5 28311664.37 1939 
119695.9502 373615723.3 37498934.01 1941 
120148.4869 341851319.7 33613281.78 2018 
120601.0236 288299244.9 28040963.64 1972 
121053.5602 245907310 24989084.54 1980 
121506.0969 257119664.2 26085753.03 1904 
121958.6336 289826759.1 29554904.82 1965 
122411.1703 253989024.6 25827636.68 1930 
122863.7069 290082246.1 31259030.24 1821 
123316.2436 297957724.6 29481564.29 1797 
123768.7803 283251012.6 27634013.65 1797 
124221.3169 261357354.2 25756485.33 1727 
124673.8536 287386695.3 31977024.75 1727 
125126.3903 226667545 24265369.6 1731 
125578.927 216109524.5 22994087.45 1684 
126031.4636 235109455.4 25090392.94 1703 
126484.0003 284351806.6 29610880.33 1736 
126936.537 272945970.6 33163215.57 1665 
127389.0737 276514564.4 29616900.31 1602 
127841.6103 217358264.5 26684586.69 1615 
128294.147 260530093.3 28081258.61 1724 
128746.6837 273557454.3 28887482.91 1639 
129199.2204 198035529.8 24136460.71 1604 
129651.757 227838293.8 26330629.99 1506 
130104.2937 254629088.7 28439680.73 1611 
130556.8304 197605389.8 24004001.76 1551 
131009.3671 229193125.6 26390301.12 1525 
131461.9037 228196899.1 24388819.04 1480 
131914.4404 203809664.8 24491950.89 1456 
132366.9771 211369762.7 27607868.13 1507 
132819.5137 195699969.3 24560602.91 1425 
133272.0504 209022319.5 23618197.76 1449 
133724.5871 204093582.2 23055315.98 1412 
134177.1238 218258566.1 25781957.16 1330 
134629.6604 176397965.4 21585758.43 1398 
135082.1971 190971814.4 23434461.07 1414 
135534.7338 191306934.5 22553207.63 1413 
135987.2705 161796418.3 18354104.75 1387 
136439.8071 241783926.2 24196976.48 1381 
136892.3438 174774684.8 22729038.07 1336 
137344.8805 183739278.1 21770551.69 1325 
137797.4172 186926119.1 21669715.75 1324 
138249.9538 189390348.6 22698889.85 1296 
138702.4905 178036131.3 21554389.39 1255 
139155.0272 137077959.6 17901701.06 1225 
139607.5639 177708144.4 21902846.77 1262 
140060.1005 144975845.2 22125483.52 1221 
140512.6372 188364284 22082955 1243 
140965.1739 160506616.8 22245132.42 1227 
141417.7105 197834362 23487301.5 1201 
141870.2472 176344818.8 20699756.53 1203 
142322.7839 187666856.5 22780881.13 1169 
142775.3206 175246339.7 21871104.07 1155 
143227.8572 185185492.6 21419143.4 1184 
143680.3939 143887969.2 23819932.92 1157 
144132.9306 162325711 21385722.83 1123 
144585.4673 162676337.2 21878174.43 1075 
145038.0039 158409088.6 21678912.76 1125 
145490.5406 163316691.2 20044818.64 1192 
145943.0773 140123322.2 17251086.46 1137 
146395.614 155669304.9 20901735.17 1108 
146848.1506 147114272.5 21198051.65 1062 
147300.6873 142664878 19268436 1040 
147753.224 158929091.7 20579107.24 1062 
148205.7607 151926309.2 20582406.54 1013 
148658.2973 142018929.5 16329382.49 1021 
149110.834 171348645.9 22673973.6 1051 
149563.3707 141482635.3 16801163.87 1042 
150015.9073 160466042.9 21591651.76 989 
150468.444 125354998.4 17793057.51 972 
150920.9807 150522353.7 21023202.35 1021 
151373.5174 117566962.3 18339500.14 964 
151826.054 134543038.2 18253770.92 933 
152278.5907 169022172.3 22391723.46 974 
152731.1274 116258577.6 17486634.91 930 
153183.6641 141273111.2 21448583.55 955 
153636.2007 109742799.1 17791098.47 981 
154088.7374 114843385.7 18102354.33 961 
154541.2741 88737885.22 14583692.27 945 
154993.8108 109104718.2 18332035.79 927 
155446.3474 152309351.2 21365327.62 895 
155898.8841 128641507.6 21281866.68 873 
156351.4208 178288261.8 23422957.38 968 
156803.9575 130758798.4 19950599.24 902 
157256.4941 104579172.1 16972622.72 876 
157709.0308 132503289.9 19615237.18 873 
158161.5675 136764242.3 19619324.75 902 
158614.1042 108934718.6 16277346.1 872 
159066.6408 145637930.3 21104226.92 830 
159519.1775 117717008.7 17519280.82 838 
159971.7142 142811187.8 21050265.91 817 
160424.2508 121119254.1 19555789.49 817 
160876.7875 112156741.1 17205558.52 747 
161329.3242 109539482.7 19996782.5 778 
161781.8609 93454239.47 13958931 795 
162234.3975 134649268.3 20844312.93 845 
162686.9342 144333466 22248795.53 759 
163139.4709 79571293.88 13899656.49 807 
163592.0076 107649763.9 18804248.55 708 
164044.5442 105760730.6 16125385.49 778 
164497.0809 116322603.2 16665862.41 783 
164949.6176 114224094.8 17549953.59 784 
165402.1543 129737278.9 19377939.03 727 
165854.6909 126469446.3 20671188.81 753 
166307.2276 122826446.1 20187417.37 736 
166759.7643 96291562.85 16881046.09 723 
167212.301 112702844.3 19019361.8 722 
167664.8376 107977974.3 18866677.92 731 
168117.3743 100941530.6 16783131.23 749 
168569.911 80122422.58 14278378.79 715 
169022.4476 69639204.29 11884945.17 715 
169474.9843 96142860.41 15771459.34 705 
169927.521 96215610.13 16018523.81 687 
170380.0577 119204078.6 21465257.51 706 
170832.5943 125546217.9 18729083.13 660 
171285.131 93388747.53 16199641.38 663 
171737.6677 98250199.66 17858335.71 708 
172190.2044 77610134.46 14711895.96 637 
172642.741 99856970.42 16630258.66 695 
173095.2777 99779123.94 17831583.45 624 
173547.8144 92406976.17 15998578.26 620 
174000.3511 89327557.12 15875760.26 634 
174452.8877 111603358.2 19416634.84 588 
174905.4244 103490434.8 18397409.18 606 
175357.9611 118570469.7 19787498.37 667 
175810.4978 117503070.8 18364045.03 648 
176263.0344 90908816.15 16870960.88 615 
176715.5711 74119874.67 13533881.59 558 
177168.1078 83963659.72 15010244.38 635 
177620.6444 89201783.46 14828775.84 621 
178073.1811 86079604.46 16267186.21 590 
178525.7178 78612923.87 15777747.93 582 
178978.2545 63460119.91 11515307.34 575 
179430.7911 95729902.71 16623673.79 561 
179883.3278 77255166.49 14828087.5 528 
180335.8645 108335547.9 17769716.74 559 
180788.4012 82779966.61 14085803.82 574 
181240.9378 72188174.62 15069268.91 565 
181693.4745 80006296.64 13863381.42 563 
182146.0112 96582848.49 16226523.44 525 
182598.5479 83753557.04 14428923.91 550 
183051.0845 67850742.63 12383505.59 523 
183503.6212 60149668 11669853.5 538 
183956.1579 56905885.63 11170188.87 504 
184408.6946 65285883.37 11372716.28 514 
184861.2312 57473307.16 11259748.46 494 
185313.7679 75428126.36 15179155.68 542 
185766.3046 97271806.44 18138993.1 535 
186218.8413 83011694.9 14336396.57 528 
186671.3779 58402612.96 11810326.55 471 
187123.9146 86399024.32 15039172.23 506 
187576.4513 103438463.5 18859405.32 512 
188028.9879 69443562.2 13495784.11 496 
188481.5246 58948998.46 10757861.69 518 
188934.0613 66147081.48 11471275.2 475 
189386.598 64384111.58 13227237.87 477 
189839.1346 39530143.22 9283623.845 480 
190291.6713 73770869.49 13693399.39 498 
190744.208 72765348.48 14001117.77 479 
191196.7447 60235373.37 10313959.87 472 
191649.2813 76956925.15 14669021.06 473 
192101.818 64290924.08 13071645.54 492 
192554.3547 92081540.87 16823446.21 455 
193006.8914 48518997.51 10811376.64 417 
193459.428 63463831.17 12744314.55 465 
193911.9647 56264014.16 11774997.77 442 
194364.5014 71924629.61 14280293.63 458 
194817.0381 67681550.04 12844724.87 429 
195269.5747 70570705.36 13015456.16 428 
195722.1114 65264279.08 13102260.74 420 
196174.6481 54037194.82 14177940.98 400 
196627.1847 49651862.18 10943303.15 426 
197079.7214 41732431.94 8960627.259 436 
197532.2581 44152041.51 9039993.773 391 
197984.7948 47142823.95 9853811.251 448 
198437.3314 53268454.25 9901347.464 426 
198889.8681 62105734.67 14027815.76 405 
199342.4048 52195700.88 11491634.21 419 
199794.9415 62965209.89 11847158.15 408 
200247.4781 56333828.41 10567337.07 419 
200700.0148 74881574.45 14803713.43 440 
201152.5515 41864033.18 9529632.496 376 
201605.0882 39251398.33 9348189.27 390 
202057.6248 47692961.55 10024598.76 393 
202510.1615 47132664.28 10561556.96 384 
202962.6982 64628588.12 13720518.71 433 
203415.2349 41589333.86 10197847.97 369 
203867.7715 56374408.08 12780275.16 394 
204320.3082 56207163.53 11835702.81 368 
204772.8449 53796088.85 10427653.58 360 
205225.3815 41043007.15 9850706.3 391 
205677.9182 44045335.2 10283398.27 385 
206130.4549 61411488.53 13607206.48 375 
206582.9916 46796251.76 10472214.71 371 
207035.5282 55102812 12321216.86 347 
207488.0649 26463655.47 5990408.925 326 
207940.6016 38739299.55 8979764.16 374 
208393.1383 16899878 4873200.69 363 
208845.6749 36596674.77 8895111.433 357 
209298.2116 29547649.17 9036692.956 347 
209750.7483 63704669.97 13637465.84 351 
210203.285 38639368.73 10069855.69 351 
210655.8216 45246790.04 8833032.418 361 
211108.3583 44888550.78 9857488.513 363 
211560.895 36918030.42 8848967.637 341 
212013.4317 32776803.48 7459354.787 325 
212465.9683 35857264.51 10295916.82 317 
212918.505 40390182.72 10143374.63 338 
213371.0417 39297237.23 11829515.87 328 
213823.5783 42925572.57 12900627.18 335 
214276.115 48979502.5 11351992.32 344 
214728.6517 27579383.31 8194657.457 307 
215181.1884 30054427.16 7298442.525 310 
215633.725 38199589.68 9361898.252 323 
216086.2617 36843657.03 9751625.01 338 
216538.7984 45062475.95 11402695.43 312 
216991.3351 36584901.05 10400506.21 327 
217443.8717 31225787.93 8430381.959 315 
217896.4084 41099029.43 8213923.255 293 
218348.9451 47212518.24 11884080.71 301 
218801.4818 33696931.91 9678181.243 309 
219254.0184 9398817.301 2967693.767 293 
219706.5551 29968992.14 7621980.681 284 
220159.0918 51466864.59 12075875.38 301 
220611.6285 33203925.06 8509625.648 308 
221064.1651 42176399.23 9061625.864 309 
221516.7018 51601965.52 11935062.63 305 
221969.2385 41709048.31 9733269.356 300 
222421.7752 25912333.41 6226659.149 312 
222874.3118 37338232.17 8874910.275 272 
223326.8485 30943120.06 9040074.436 295 
223779.3852 16777766.69 5085960.034 281 
224231.9218 28140078.15 8466989.109 285 
224684.4585 21132227.45 6172540.933 282 
225136.9952 30738298.18 9347534.09 285 
225589.5319 30331530.42 8379988.334 278 
226042.0685 40836255.31 8504129.287 293 
226494.6052 27921436.07 7879874.027 289 
226947.1419 41831858.47 10191760.7 239 
227399.6786 26332279.15 7955091.583 276 
227852.2152 31524974.37 9307464.707 238 
228304.7519 13747904.62 3539455.605 242 
228757.2886 35430173.94 11127852.09 268 
229209.8253 31152095.92 7360647.313 285 
229662.3619 30028575.18 8788727.762 247 
230114.8986 30691211.7 9258414.777 266 
230567.4353 26668957.89 7917009.665 261 
231019.972 33262307.02 8575223.925 279 
231472.5086 24343389.43 8913343.619 256 
231925.0453 26256759.97 8268985.843 255 
232377.582 61864669.46 15154236.6 244 
232830.1186 30700474.62 10017796.1 263 
233282.6553 27495514.89 8065677.614 247 
233735.192 15226562.02 5079230.545 224 
234187.7287 26239128.29 7045050.966 275 
234640.2653 35481653.09 10715731.45 253 
235092.802 28316299.23 8504230.583 256 
235545.3387 14617020.5 4836698.896 245 
235997.8754 36363540.59 10688903.09 237 
236450.412 29328741.2 9242484.414 231 
236902.9487 15859672.11 4173044.385 236 
237355.4854 26345109.89 8253799.584 253 
237808.0221 23662977.4 5884517.788 255 
238260.5587 16717877.68 4994581.147 229 
238713.0954 16146967.6 6050939.508 219 
239165.6321 43001338.34 10901716.8 256 
239618.1688 30206072.04 9888737.052 227 
240070.7054 20178217 5809801.636 243 
240523.2421 24112092.99 7124159.53 239 
240975.7788 36256178.58 8578587.382 251 
241428.3154 21988217.39 5839681.826 244 
241880.8521 30566732.85 7677194.731 236 
242333.3888 22866409.55 6650819.456 204 
242785.9255 31272305.39 9609141.654 246 
243238.4621 24878113.57 7168726.351 221 
243690.9988 24100887.59 8065461.489 219 
244143.5355 20586879.6 5920485.236 228 
244596.0722 16296776.3 4514883.496 218 
245048.6088 24082782.54 6222010.557 195 
245501.1455 25999722.61 6897878.049 230 
245953.6822 8123289.433 2601465.95 187 
246406.2189 17117470.64 6684048.032 226 
246858.7555 21869751.86 6471333.245 201 
247311.2922 20714770.46 7723388.712 204 
247763.8289 16984487.79 5013930.588 231 
248216.3656 13689311.91 4239643.354 197 
248668.9022 23728644.45 7147362.038 223 
249121.4389 21435458.93 6025250.324 219 
249573.9756 11621087.02 3772999.876 179 
250026.5122 28421329.2 8435645.617 203 
250479.0489 16796516.19 6323652.359 182 
250931.5856 13427969.4 5755133.868 206 
251384.1223 20859549.32 6754139.188 203 
251836.6589 20998882.8 8917951.02 191 
252289.1956 21007327.87 7404260.547 195 
252741.7323 14814197.58 4754346.839 175 
253194.269 15037214.78 4928903.177 197 
253646.8056 13669517.07 4383642.82 167 
254099.3423 5746253.962 3285655.218 173 
254551.879 4421013.532 1832001.77 171 
255004.4157 20121425.77 6428798.244 187 
255456.9523 17626217.51 5740277.36 205 
255909.489 25791808.42 7743591.602 206 
256362.0257 19162938.74 5305356.618 180 
256814.5624 11191999.07 5244813.139 188 
257267.099 18029518.11 7510948.211 174 
257719.6357 18615579.85 6190696.549 202 
258172.1724 8857335.246 2832106.09 197 
258624.7091 11392776.98 3519612.395 169 
259077.2457 13734684.74 4668329.626 205 
259529.7824 24476595.44 6872351.165 163 
259982.3191 12341986.23 4442533.158 178 
260434.8557 19964949.27 6669635.391 182 
260887.3924 13078947.08 4540928.924 177 
261339.9291 25241310.51 9246082.466 203 
261792.4658 14338601.58 5823367.134 183 
262245.0024 13724163.81 4202896.255 178 
262697.5391 23474349.36 8101864.644 189 
263150.0758 14608946.25 4721339.56 179 
263602.6125 20691376.33 7275977.113 179 
264055.1491 13748908.14 4589601.651 169 
264507.6858 25171894.06 7446926.335 176 
264960.2225 16141935.26 4773282.454 172 
265412.7592 21582532.48 8076418.212 184 
265865.2958 9391385.758 3502451.443 183 
266317.8325 12373265.9 5764942.513 160 
266770.3692 22531579.73 6250566.408 171 
267222.9059 17619558.64 6049120.936 172 
267675.4425 21253086.06 7031438.057 152 
268127.9792 19361252.87 6694815.406 151 
268580.5159 12011429.62 5331476.131 159 
269033.0525 20044048.14 7902926.547 148 
269485.5892 20903939.17 8361209.711 177 
269938.1259 4139880.205 1508575.381 154 
270390.6626 15076436.68 5898063.998 161 
270843.1992 15035583.4 6063798.471 152 
271295.7359 14349019.01 5855563.575 147 
271748.2726 9825550.591 4205549.475 149 
272200.8093 12132714.35 5476457.487 150 
272653.3459 24086663.84 7516935.342 154 
273105.8826 21035825.03 8329395.361 137 
273558.4193 20224809.55 6613099.22 149 
274010.956 17764474.24 6917461.299 150 
274463.4926 14004655.5 5804216.131 152 
274916.0293 11507223.01 5150108.414 160 
275368.566 6116430.132 2585904.418 145 
275821.1027 19035734.97 6881390.205 153 
276273.6393 22636568.47 7881830.979 151 
276726.176 15809141.15 6204040.346 164 
277178.7127 1144254.153 783312.6007 123 
277631.2493 26698804.67 9384383.43 167 
278083.786 11667199.31 7201094.232 127 
278536.3227 8307822.426 3449353.164 153 
278988.8594 15954446.53 5148731.863 172 
279441.396 14555950.24 6486032.358 132 
279893.9327 8619443.377 5779310.877 124 
280346.4694 7135869 2674159.978 151 
280799.0061 15970331.24 5959466.816 129 
281251.5427 12599566.27 4599680.067 135 
281704.0794 12981006.45 4836049.617 130 
282156.6161 12589076.21 5171688.47 123 
282609.1528 14334486.31 5310026.881 141 
283061.6894 17355716.39 5357628.681 139 
283514.2261 20159967.74 7102544.573 128 
283966.7628 20743433.18 7470479.182 141 
284419.2995 7486146.59 3266064.858 115 
284871.8361 10116965.61 5138507.114 117 
285324.3728 12066735.88 4713977.118 106 
285776.9095 22970254.12 7513846.538 140 
286229.4461 28587223.67 9743314.479 150 
286681.9828 16522655.83 8421150.379 108 
287134.5195 5357318.384 2956378.543 117 
287587.0562 6584312.395 3137005.415 143 
288039.5928 8544579.483 3529109.961 119 
288492.1295 6683940.851 2682854.572 129 
288944.6662 16049684.34 6562231.152 110 
289397.2029 14232762.45 5825702.007 132 
289849.7395 15948265.84 6613551.536 111 
290302.2762 8715876.139 3929390.822 124 
290754.8129 3724843.084 1208024.465 122 
291207.3496 7334593.952 2869649.717 125 
291659.8862 4432185.428 2878165.437 107 
292112.4229 17230905.28 5711817.926 129 
292564.9596 19461013.05 6917699.352 118 
293017.4963 8872716.59 4208419.843 128 
293470.0329 6744571.81 3887381.387 121 
293922.5696 7504175.387 4919522.443 101 
294375.1063 3066444.461 1461424.242 123 
294827.643 10010344.53 4264138.44 121 
295280.1796 9376316.721 5489994.214 116 
295732.7163 1372278.721 967058.9656 108 
296185.253 12699897.92 5844157.268 125 
296637.7896 5670119.177 3035478.537 126 
297090.3263 13927427.69 5379592.252 117 
297542.863 8106443.623 3528444.278 100 
297995.3997 16137267.64 7317967.946 112 
298447.9363 9705011.158 3077960.655 135 
298900.473 13697351.57 6681007.589 122 
299353.0097 1800930.496 943235.7918 95 
299805.5464 6191063.055 3098677.887 104 
300258.083 11304461.67 5129984.099 148 
300710.6197 14922793.53 6271014.252 112 
301163.1564 3609825.242 1353742.655 117 
301615.6931 9122388.822 4873524.993 115 
302068.2297 3731999.124 1614494.832 104 
302520.7664 9772078.303 5313874.631 102 
302973.3031 13523304.5 5375864.221 102 
303425.8398 12769422.32 6398657.683 100 
303878.3764 3917501.714 2131475.673 96 
304330.9131 7798405.677 3058706.975 114 
304783.4498 10605991.03 4343383.358 110 
305235.9864 12386381.56 4868822.558 110 
305688.5231 9081662.396 4869230.157 103 
306141.0598 11780072.87 4770332.556 119 
306593.5965 11336778.56 4241421.011 112 
307046.1331 3115850.55 1589679.51 94 
307498.6698 3509047.058 1494153.245 93 
307951.2065 8612455.556 4457157.969 114 
308403.7432 14050920.48 5887743.748 94 
308856.2798 15244874.55 7437497.739 113 
309308.8165 2796405.408 1360832.747 108 
309761.3532 9725960.449 5788635.78 89 
310213.8899 13160030.43 5288810.851 89 
310666.4265 5707738.435 2287595.622 122 
311118.9632 12855818.32 7726122.742 90 
311571.4999 8993224.479 4321633.553 107 
312024.0366 13778069.59 6805228.378 117 
312476.5732 8159400.103 4490203.666 102 
312929.1099 1814519.533 1247466.53 89 
313381.6466 2523816.131 1228803.048 101 
313834.1832 17197051.35 7180005.632 90 
314286.7199 4117084.323 1414027.632 99 
314739.2566 6920403.055 2974929.142 90 
315191.7933 7664276.949 3157519.789 112 
315644.3299 2779635.853 1094449.875 92 
316096.8666 12079343 5916719.101 81 
316549.4033 18841577.57 8203230.041 115 
317001.94 1966349.164 920762.6735 92 
317454.4766 13324419.32 5603553.32 83 
317907.0133 2973723.666 1494377.154 74 
318359.55 2887261.92 2240912.319 108 
318812.0867 5063573.172 2517173.646 91 
319264.6233 8238394.88 4440041.244 93 
319717.16 4910963.601 2617620.962 91 
320169.6967 7411335.598 3330619.855 113 
320622.2334 5616696.311 2941751.895 88 
321074.77 12364355.66 5016360.939 95 
321527.3067 4796702.481 2809679.133 77 
321979.8434 3593019.745 2129608.932 77 
322432.3801 11391305.31 5469235.406 102 
322884.9167 4552640.493 1977549.437 100 
323337.4534 6491215.493 3999215.955 102 
323789.9901 9318664.227 5171721.963 87 
324242.5267 2352918.893 2045661.355 65 
324695.0634 1817664.398 973227.7208 100 
325147.6001 10731059.87 5245833.168 108 
325600.1368 8374637.374 4696092.669 92 
326052.6734 2694697.178 1571133.378 82 
326505.2101 6159034.039 3102605.759 76 
326957.7468 2120761.509 1491899.931 93 
327410.2835 10086956.69 4358103.808 83 
327862.8201 2753860.667 1396442.078 76 
328315.3568 2914571.114 1457771.654 93 
328767.8935 12228633.66 5795787.013 81 
329220.4302 7090194.46 3534010.582 93 
329672.9668 6797507.866 4752065.149 83 
330125.5035 10726523.31 4072296.565 88 
330578.0402 6014533.799 3456626.188 74 
331030.5769 4794594.046 3259540.93 86 
331483.1135 11902682.89 6225463.579 75 
331935.6502 4991681.699 2962951.123 93 
332388.1869 3392547.307 1827509.17 123 
332840.7235 8565995.088 5247010.795 75 
333293.2602 3592131.953 1605208.825 84 
333745.7969 3905709.583 2550489.202 92 
334198.3336 4700056.909 3000202.109 95 
334650.8702 242068.8153 123375.4933 84 
335103.4069 3594898.318 2069166.562 74 
335555.9436 4193944.369 3089125.01 93 
336008.4803 1684935.132 1040413.511 72 
336461.0169 1890134.382 930677.4658 74 
336913.5536 10364160.7 5481040.655 81 
337366.0903 1322031.123 893887.4447 90 
337818.627 1898272.413 1274843.503 70 
338271.1636 2117164.875 1417167.573 67 
338723.7003 2318857.611 1506244.054 71 
339176.237 4815431.134 2409005.701 82 
339628.7737 3799973.304 3046603.188 74 
340081.3103 3880644.98 1573006.835 87 
340533.847 1050655.435 509796.5237 79 
340986.3837 6281125.162 3594946.895 77 
341438.9203 3287253.267 1703083.413 73 
341891.457 820286.694 415324.52 91 
342343.9937 3019011.559 2436291.357 74 
342796.5304 3721850.749 2149395.051 64 
343249.067 4943052.053 3139577.679 76 
343701.6037 11791573.1 6130081.504 80 
344154.1404 1389767.672 775649.2397 84 
344606.6771 4998768.944 2141100.572 80 
345059.2137 1656894.965 1200484.655 67 
345511.7504 1285917.913 668025.9539 64 
345964.2871 855258.3903 489305.4728 81 
346416.8238 3678236.427 2865463.883 87 
346869.3604 9418399.034 4901490.505 84 
347321.8971 821267.541 621062.5894 72 
347774.4338 5459952.319 3219918.308 76 
348226.9705 1544343.507 863344.3233 70 
348679.5071 7234880.523 3987106.601 75 
349132.0438 1160782.206 576947.243 68 
349584.5805 3231650.067 1526476.425 74 
350037.1171 3077937.501 1642329.017 64 
350489.6538 1533844.174 622119.6465 78 
350942.1905 5329199.867 3305837.611 81 
351394.7272 2032454.98 1528008.049 78 
351847.2638 313466.8121 219509.0829 59 
352299.8005 2783433.274 1210498.266 74 
352752.3372 619310.1875 545341.4192 69 
353204.8739 5910304.58 3150936.831 53 
353657.4105 12638493.54 5568832.61 64 
354109.9472 4340409.857 1886072.567 69 
354562.4839 3022405.369 1583690.744 75 
355015.0206 189857.2622 159681.2222 50 
355467.5572 2469834.23 1192981.095 76 
355920.0939 5099452.66 4214587.284 70 
356372.6306 331353.0825 214661.493 57 
356825.1673 1399412.793 854160.0776 63 
357277.7039 5468539.317 4006513.495 59 
357730.2406 7130955.855 4378609.543 60 
358182.7773 4153869.831 2479858.403 58 
358635.314 5803488.575 3141006.16 74 
359087.8506 4361143.489 2383009.805 80 
359540.3873 1333819.467 620757.4158 79 
359992.924 2818847.418 1998918.704 54 
360445.4606 5468341.461 3727912.935 68 
360897.9973 3143925.457 1623978.896 71 
361350.534 1671734.689 994359.5742 54 
361803.0707 4003554.284 2250976.366 73 
362255.6073 1769003.247 1320690.661 69 
362708.144 5024419.731 3085708.877 66 
363160.6807 5431199.439 3226664.553 70 
363613.2174 3871292.361 3060904.356 73 
364065.754 4030047.771 2104686.31 64 
364518.2907 975870.4468 637366.6506 60 
364970.8274 7601506.796 4048125.011 68 
365423.3641 766153.289 545584.3187 71 
365875.9007 5508983.839 2698257.685 68 
366328.4374 3058355.54 2068119.925 57 
366780.9741 7867920.779 3943498.836 60 
367233.5108 1387848.6 636569.4032 67 
367686.0474 6887765.46 3391978.117 81 
368138.5841 3989370.658 2093229.94 62 
368591.1208 2129296.824 1555312.529 61 
369043.6574 4149466.087 3003018.521 66 
369496.1941 4443092.047 3222558.008 52 
369948.7308 1650969.657 828695.5691 55 
370401.2675 4550516.333 3335045.926 63 
370853.8041 4058816.761 3490823.214 68 
371306.3408 1922455.703 999293.7389 55 
371758.8775 1891111.205 1432912.874 67 
372211.4142 3561592.251 2891260.156 66 
372663.9508 6856524.915 3528265.731 62 
373116.4875 2059632.43 1097471.894 41 
373569.0242 1194066.691 743916.8123 66 
374021.5609 5157138.478 3745512.338 66 
374474.0975 4310947.629 2374073.377 60 
374926.6342 2479401.121 1501542.652 62 
375379.1709 5414115.597 2918240.956 67 
375831.7076 2382508.654 1462444.279 54 
376284.2442 1485604.382 919102.1459 59 
376736.7809 2001643.562 1199247.397 55 
377189.3176 2871265.213 1680297.28 53 
377641.8542 966779.2249 549404.4129 74 
378094.3909 923782.757 452582.1123 62 
378546.9276 2302707.81 1349057.764 63 
378999.4643 1212753.667 991586.8586 68 
379452.0009 2490258.215 1319937.977 50 
379904.5376 129945.1623 89402.60829 63 
380357.0743 5936766.242 3761574.167 59 
380809.611 4333663.713 2991663.05 68 
381262.1476 23583.75896 19092.54254 37 
381714.6843 2016362.26 1393544.167 64 
382167.221 1396314.45 928565.2232 55 
382619.7577 12879588.33 6976765.648 63 
383072.2943 2375004.612 1678847.863 55 
383524.831 1983067.574 1239731.575 54 
383977.3677 1382555.813 704652.4349 51 
384429.9044 6455396.639 3551573.798 51 
384882.441 886248.241 826924.5416 51 
385334.9777 491453.8712 363355.8472 60 
385787.5144 1785988.132 1360275.71 63 
386240.051 4501926.718 1852941.375 65 
386692.5877 2614354.795 1530097.067 46 
387145.1244 237259.9705 137223.8831 56 
387597.6611 3473425.417 2600226.778 63 
388050.1977 8189435.059 4913904.958 56 
388502.7344 3983564.921 3228511.011 64 
388955.2711 4823931.392 3230683.977 52 
389407.8078 2828741.26 1882672.966 56 
389860.3444 332688.3811 198847.3817 53 
390312.8811 3927169.088 2176439.543 63 
390765.4178 6604139.26 5059971.143 58 
391217.9545 6328035.59 3762458.767 56 
391670.4911 2863367.956 1721190.822 59 
392123.0278 5005860.296 3641515.685 55 
392575.5645 191012.5592 188256.5216 48 
393028.1012 7395741.987 3697916.961 77 
393480.6378 2765046.839 1906520.67 47 
393933.1745 5274786.679 3281495.822 60 
394385.7112 875556.9129 760080.782 49 
394838.2479 1184685.708 830169.8208 50 
395290.7845 972505.6458 962524.4948 59 
395743.3212 3031364.543 2832202.298 55 
396195.8579 757539.0192 693546.0833 51 
396648.3945 2095627.62 1682799.802 72 
397100.9312 3246996.781 2873242.733 54 
397553.4679 2123839.771 1876928.121 33 
398006.0046 2621341.8 1184114.153 51 
398458.5412 4170856.366 3036411.271 44 
398911.0779 1330532.701 1205785.356 62 
399363.6146 4638270.022 3052649.647 47 
399816.1513 13499702.91 6558330.021 63 
400268.6879 3006367.464 2097947.513 54 
400721.2246 5306720.214 3731184.365 46 
401173.7613 305313.8261 220442.1376 44 
401626.298 8394.252429 5358.936765 43 
402078.8346 233149.3904 113066.8969 52 
402531.3713 640119.4549 455128.9342 61 
402983.908 117024.8722 114955.7729 52 
403436.4447 2417551.587 1724591.111 43 
403888.9813 6339302.222 3837447.333 51 
404341.518 8045405.129 6181497.285 61 
404794.0547 939835.6942 584925.9982 48 
405246.5913 6214993.925 6092869.391 60 
405699.128 9741765.658 6847733.843 66 
406151.6647 604070.675 517174.2006 46 
406604.2014 105262.5768 90068.90497 35 
407056.738 1001886.325 1013271.154 37 
407509.2747 934433.5785 843104.9745 46 
407961.8114 5312142.051 3555023.005 53 
408414.3481 86507.38207 77735.43331 40 
408866.8847 13652940.68 8327595.877 45 
409319.4214 287681.9507 226894.9447 49 
409771.9581 2454560.684 2105927.304 46 
410224.4948 439847.808 322957.0189 42 
410677.0314 384370.6122 259173.1942 47 
411129.5681 568073.2757 409808.3118 37 
411582.1048 4725953.733 3651256.707 34 
412034.6415 2045282.241 1787014.295 49 
412487.1781 5264831.363 3774382.178 46 
412939.7148 165439.7653 80866.52245 41 
413392.2515 1548252.629 1342121.663 46 
413844.7881 2831033.135 2864125.363 40 
414297.3248 718979.4156 529347.8882 45 
414749.8615 32638.85726 16193.67104 50 
415202.3982 1323243.223 638103.9891 60 
415654.9348 4386534.622 4185614.162 45 
416107.4715 449904.8161 264812.0399 37 
416560.0082 1599389.659 1282161.058 44 
417012.5449 160356.2267 122029.1144 54 
417465.0815 6240750.935 3925599.939 56 
417917.6182 2974886.553 2122133.091 51 
418370.1549 1288104.063 1015361.837 40 
418822.6916 101940.8495 102021.1262 36 
419275.2282 8091234.594 6270133.879 52 
419727.7649 2022777.935 2022266.435 50 
420180.3016 11258967.05 5833472.107 45 
420632.8383 614903.1723 424220.3454 61 
421085.3749 5794228.187 4054457.843 49 
421537.9116 4694046.486 3290069.139 64 
421990.4483 4037304.375 3795297.728 34 
422442.985 1214926.76 1218422.987 47 
422895.5216 2356316.24 2240917.198 42 
423348.0583 1078570.311 1011023.797 53 
423800.595 4991614.939 4526905.823 51 
424253.1316 1046195.708 668652.6792 47 
424705.6683 29751.36437 26763.51712 44 
425158.205 2559313.726 1592706.386 53 
425610.7417 1384046.262 1081969.128 46 
426063.2783 12694.00357 5637.914968 47 
426515.815 6037907.95 4868535.834 42 
426968.3517 8854717.793 5391483.536 42 
427420.8884 353013.8647 237654.4509 39 
427873.425 1516973.81 1243108.038 56 
428325.9617 1981.931002 779.6831245 37 
428778.4984 647543.1357 462141.3515 45 
429231.0351 1220495.73 1120233.918 52 
429683.5717 2454971.148 2384612.606 45 
430136.1084 104897.8682 100027.6168 48 
430588.6451 7869211.637 4744514.578 43 
431041.1818 8551.430826 4678.490001 33 
431493.7184 925916.5877 935004.3897 25 
431946.2551 39984.79687 18687.54072 36 
432398.7918 124966.5118 107043.3674 43 
432851.3284 1713442.865 1630799.512 41 
433303.8651 146834.6881 117399.3231 27 
433756.4018 602326.546 350183.3924 49 
434208.9385 170756.9153 160966.4289 45 
434661.4751 188197.8006 129009.558 38 
435114.0118 1731356.679 1627566.631 49 
435566.5485 767060.7094 537885.6065 44 
436019.0852 3717125.585 2620497.247 40 
436471.6218 213480.5107 124843.6292 39 
436924.1585 3528586.706 2885351.379 41 
437376.6952 106682.7153 107385.7228 45 
437829.2319 107746.7077 108850.9777 34 
438281.7685 1393727.713 1405361.335 37 
438734.3052 105411.9494 85293.9942 35 
439186.8419 427902.0923 251557.2505 56 
439639.3786 1009201.641 650871.2579 42 
440091.9152 99465.1933 98747.52377 44 
440544.4519 693583.3384 419228.1748 43 
440996.9886 1388992.175 1283056.368 53 
441449.5252 21552.24568 17855.78986 36 
441902.0619 5527831.291 4243202.315 46 
442354.5986 17397.08472 8452.027339 40 
442807.1353 1106740.507 628897.0248 37 
443259.6719 645634.1474 481264.7578 47 
443712.2086 34318.31942 26809.54688 31 
444164.7453 6668.277501 4100.444956 41 
444617.282 157885.6455 115003.8761 33 
445069.8186 6337901.847 4424584.018 41 
445522.3553 367823.0033 257830.0825 46 
445974.892 6230238.846 6007381.685 37 
446427.4287 4365313.419 4399958.117 42 
446879.9653 1182419.818 679780.0753 32 
447332.502 34940.89651 28869.02879 37 
447785.0387 1105998.836 1113624.878 42 
448237.5754 492690.5839 380619.2974 52 
448690.112 64802.57259 62462.05271 45 
449142.6487 123021.4395 111997.0726 37 
449595.1854 11719.47823 7144.860969 40 
450047.722 4339919.052 4153469.068 38 
450500.2587 861736.8411 867866.5846 39 
450952.7954 1253181.536 1253150.339 34 
451405.3321 233074.5407 228049.3394 48 
451857.8687 360932.7665 272831.5785 37 
452310.4054 11717.0597 10918.42217 37 
